  14  14   0   0
  0.1021318E+02  0.5700971E-09  0.4044058E-09  0.6201871E-09  0.5000000E-15
  1.000000000000000E-004
  CAR 
 Dielectric                              
     17.93969664    -14.15060956 4000      1.91650636      1.00000000
    -14.151  0.0000E+00  0.0000E+00
    -14.143  0.0000E+00  0.0000E+00
    -14.135  0.0000E+00  0.0000E+00
    -14.127  0.0000E+00  0.0000E+00
    -14.119  0.0000E+00  0.0000E+00
    -14.110  0.0000E+00  0.0000E+00
    -14.102  0.0000E+00  0.0000E+00
    -14.094  0.0000E+00  0.0000E+00
    -14.086  0.0000E+00  0.0000E+00
    -14.078  0.0000E+00  0.0000E+00
    -14.070  0.0000E+00  0.0000E+00
    -14.062  0.0000E+00  0.0000E+00
    -14.054  0.0000E+00  0.0000E+00
    -14.046  0.0000E+00  0.0000E+00
    -14.038  0.0000E+00  0.0000E+00
    -14.030  0.0000E+00  0.0000E+00
    -14.022  0.0000E+00  0.0000E+00
    -14.014  0.0000E+00  0.0000E+00
    -14.006  0.0000E+00  0.0000E+00
    -13.998  0.0000E+00  0.0000E+00
    -13.990  0.0000E+00  0.0000E+00
    -13.982  0.0000E+00  0.0000E+00
    -13.974  0.0000E+00  0.0000E+00
    -13.966  0.0000E+00  0.0000E+00
    -13.958  0.0000E+00  0.0000E+00
    -13.950  0.0000E+00  0.0000E+00
    -13.942  0.0000E+00  0.0000E+00
    -13.934  0.0000E+00  0.0000E+00
    -13.926  0.0000E+00  0.0000E+00
    -13.918  0.0000E+00  0.0000E+00
    -13.910  0.0000E+00  0.0000E+00
    -13.902  0.0000E+00  0.0000E+00
    -13.894  0.0000E+00  0.0000E+00
    -13.886  0.0000E+00  0.0000E+00
    -13.878  0.0000E+00  0.0000E+00
    -13.870  0.0000E+00  0.0000E+00
    -13.862  0.0000E+00  0.0000E+00
    -13.854  0.0000E+00  0.0000E+00
    -13.846  0.0000E+00  0.0000E+00
    -13.838  0.0000E+00  0.0000E+00
    -13.830  0.0000E+00  0.0000E+00
    -13.822  0.0000E+00  0.0000E+00
    -13.814  0.0000E+00  0.0000E+00
    -13.806  0.0000E+00  0.0000E+00
    -13.798  0.0000E+00  0.0000E+00
    -13.790  0.0000E+00  0.0000E+00
    -13.781  0.0000E+00  0.0000E+00
    -13.773  0.0000E+00  0.0000E+00
    -13.765  0.0000E+00  0.0000E+00
    -13.757  0.0000E+00  0.0000E+00
    -13.749  0.0000E+00  0.0000E+00
    -13.741  0.0000E+00  0.0000E+00
    -13.733  0.0000E+00  0.0000E+00
    -13.725  0.0000E+00  0.0000E+00
    -13.717  0.0000E+00  0.0000E+00
    -13.709  0.0000E+00  0.0000E+00
    -13.701  0.0000E+00  0.0000E+00
    -13.693  0.0000E+00  0.0000E+00
    -13.685  0.0000E+00  0.0000E+00
    -13.677  0.0000E+00  0.0000E+00
    -13.669  0.0000E+00  0.0000E+00
    -13.661  0.0000E+00  0.0000E+00
    -13.653  0.0000E+00  0.0000E+00
    -13.645  0.0000E+00  0.0000E+00
    -13.637  0.0000E+00  0.0000E+00
    -13.629  0.0000E+00  0.0000E+00
    -13.621  0.0000E+00  0.0000E+00
    -13.613  0.0000E+00  0.0000E+00
    -13.605  0.0000E+00  0.0000E+00
    -13.597  0.0000E+00  0.0000E+00
    -13.589  0.0000E+00  0.0000E+00
    -13.581  0.0000E+00  0.0000E+00
    -13.573  0.0000E+00  0.0000E+00
    -13.565  0.0000E+00  0.0000E+00
    -13.557  0.0000E+00  0.0000E+00
    -13.549  0.0000E+00  0.0000E+00
    -13.541  0.0000E+00  0.0000E+00
    -13.533  0.0000E+00  0.0000E+00
    -13.525  0.0000E+00  0.0000E+00
    -13.517  0.0000E+00  0.0000E+00
    -13.509  0.0000E+00  0.0000E+00
    -13.501  0.0000E+00  0.0000E+00
    -13.493  0.0000E+00  0.0000E+00
    -13.485  0.0000E+00  0.0000E+00
    -13.477  0.0000E+00  0.0000E+00
    -13.469  0.0000E+00  0.0000E+00
    -13.460  0.0000E+00  0.0000E+00
    -13.452  0.0000E+00  0.0000E+00
    -13.444  0.0000E+00  0.0000E+00
    -13.436  0.0000E+00  0.0000E+00
    -13.428  0.0000E+00  0.0000E+00
    -13.420  0.0000E+00  0.0000E+00
    -13.412  0.0000E+00  0.0000E+00
    -13.404  0.0000E+00  0.0000E+00
    -13.396  0.0000E+00  0.0000E+00
    -13.388  0.0000E+00  0.0000E+00
    -13.380  0.0000E+00  0.0000E+00
    -13.372  0.0000E+00  0.0000E+00
    -13.364  0.0000E+00  0.0000E+00
    -13.356  0.0000E+00  0.0000E+00
    -13.348  0.0000E+00  0.0000E+00
    -13.340  0.0000E+00  0.0000E+00
    -13.332  0.0000E+00  0.0000E+00
    -13.324  0.0000E+00  0.0000E+00
    -13.316  0.0000E+00  0.0000E+00
    -13.308  0.0000E+00  0.0000E+00
    -13.300  0.0000E+00  0.0000E+00
    -13.292  0.0000E+00  0.0000E+00
    -13.284  0.0000E+00  0.0000E+00
    -13.276  0.0000E+00  0.0000E+00
    -13.268  0.0000E+00  0.0000E+00
    -13.260  0.0000E+00  0.0000E+00
    -13.252  0.0000E+00  0.0000E+00
    -13.244  0.0000E+00  0.0000E+00
    -13.236  0.0000E+00  0.0000E+00
    -13.228  0.0000E+00  0.0000E+00
    -13.220  0.0000E+00  0.0000E+00
    -13.212  0.0000E+00  0.0000E+00
    -13.204  0.0000E+00  0.0000E+00
    -13.196  0.0000E+00  0.0000E+00
    -13.188  0.0000E+00  0.0000E+00
    -13.180  0.0000E+00  0.0000E+00
    -13.172  0.0000E+00  0.0000E+00
    -13.164  0.0000E+00  0.0000E+00
    -13.156  0.0000E+00  0.0000E+00
    -13.148  0.0000E+00  0.0000E+00
    -13.140  0.0000E+00  0.0000E+00
    -13.131  0.0000E+00  0.0000E+00
    -13.123  0.0000E+00  0.0000E+00
    -13.115  0.0000E+00  0.0000E+00
    -13.107  0.0000E+00  0.0000E+00
    -13.099  0.0000E+00  0.0000E+00
    -13.091  0.0000E+00  0.0000E+00
    -13.083  0.0000E+00  0.0000E+00
    -13.075  0.0000E+00  0.0000E+00
    -13.067  0.0000E+00  0.0000E+00
    -13.059  0.0000E+00  0.0000E+00
    -13.051  0.0000E+00  0.0000E+00
    -13.043  0.0000E+00  0.0000E+00
    -13.035  0.0000E+00  0.0000E+00
    -13.027  0.0000E+00  0.0000E+00
    -13.019  0.0000E+00  0.0000E+00
    -13.011  0.0000E+00  0.0000E+00
    -13.003  0.0000E+00  0.0000E+00
    -12.995  0.0000E+00  0.0000E+00
    -12.987  0.0000E+00  0.0000E+00
    -12.979  0.0000E+00  0.0000E+00
    -12.971  0.0000E+00  0.0000E+00
    -12.963  0.0000E+00  0.0000E+00
    -12.955  0.0000E+00  0.0000E+00
    -12.947  0.0000E+00  0.0000E+00
    -12.939  0.0000E+00  0.0000E+00
    -12.931  0.0000E+00  0.0000E+00
    -12.923  0.0000E+00  0.0000E+00
    -12.915  0.0000E+00  0.0000E+00
    -12.907  0.0000E+00  0.0000E+00
    -12.899  0.0000E+00  0.0000E+00
    -12.891  0.0000E+00  0.0000E+00
    -12.883  0.0000E+00  0.0000E+00
    -12.875  0.0000E+00  0.0000E+00
    -12.867  0.0000E+00  0.0000E+00
    -12.859  0.0000E+00  0.0000E+00
    -12.851  0.0000E+00  0.0000E+00
    -12.843  0.0000E+00  0.0000E+00
    -12.835  0.0000E+00  0.0000E+00
    -12.827  0.0000E+00  0.0000E+00
    -12.819  0.0000E+00  0.0000E+00
    -12.811  0.0000E+00  0.0000E+00
    -12.802  0.0000E+00  0.0000E+00
    -12.794  0.0000E+00  0.0000E+00
    -12.786  0.0000E+00  0.0000E+00
    -12.778  0.0000E+00  0.0000E+00
    -12.770  0.0000E+00  0.0000E+00
    -12.762  0.0000E+00  0.0000E+00
    -12.754  0.0000E+00  0.0000E+00
    -12.746  0.6017E-14  0.4829E-16
    -12.738  0.2258E-10  0.1812E-12
    -12.730  0.2405E-07  0.1932E-09
    -12.722  0.7326E-05  0.5898E-07
    -12.714  0.6484E-03  0.5262E-05
    -12.706  0.1717E-01  0.1430E-03
    -12.698  0.1457E+00  0.1312E-02
    -12.690  0.4758E+00  0.5130E-02
    -12.682  0.8123E+00  0.1165E-01
    -12.674  0.8256E+00  0.1827E-01
    -12.666  0.7386E+00  0.2420E-01
    -12.658  0.1166E+01  0.3355E-01
    -12.650  0.1650E+01  0.4680E-01
    -12.642  0.1435E+01  0.5831E-01
    -12.634  0.1357E+01  0.6920E-01
    -12.626  0.1790E+01  0.8356E-01
    -12.618  0.2542E+01  0.1040E+00
    -12.610  0.3010E+01  0.1281E+00
    -12.602  0.2040E+01  0.1445E+00
    -12.594  0.1665E+01  0.1578E+00
    -12.586  0.2665E+01  0.1792E+00
    -12.578  0.2878E+01  0.2023E+00
    -12.570  0.2732E+01  0.2242E+00
    -12.562  0.2912E+01  0.2476E+00
    -12.554  0.3538E+01  0.2760E+00
    -12.546  0.3950E+01  0.3077E+00
    -12.538  0.2910E+01  0.3310E+00
    -12.530  0.3083E+01  0.3558E+00
    -12.522  0.3930E+01  0.3873E+00
    -12.514  0.2987E+01  0.4113E+00
    -12.506  0.2696E+01  0.4329E+00
    -12.498  0.3262E+01  0.4591E+00
    -12.490  0.3840E+01  0.4899E+00
    -12.481  0.3772E+01  0.5202E+00
    -12.473  0.3318E+01  0.5468E+00
    -12.465  0.3361E+01  0.5738E+00
    -12.457  0.3398E+01  0.6010E+00
    -12.449  0.3593E+01  0.6299E+00
    -12.441  0.3264E+01  0.6561E+00
    -12.433  0.3605E+01  0.6850E+00
    -12.425  0.4977E+01  0.7249E+00
    -12.417  0.4835E+01  0.7637E+00
    -12.409  0.4987E+01  0.8037E+00
    -12.401  0.5156E+01  0.8451E+00
    -12.393  0.3829E+01  0.8758E+00
    -12.385  0.3750E+01  0.9059E+00
    -12.377  0.4785E+01  0.9443E+00
    -12.369  0.5592E+01  0.9892E+00
    -12.361  0.5765E+01  0.1035E+01
    -12.353  0.4949E+01  0.1075E+01
    -12.345  0.4434E+01  0.1111E+01
    -12.337  0.4094E+01  0.1144E+01
    -12.329  0.2756E+01  0.1166E+01
    -12.321  0.2778E+01  0.1188E+01
    -12.313  0.3972E+01  0.1220E+01
    -12.305  0.3606E+01  0.1249E+01
    -12.297  0.3456E+01  0.1277E+01
    -12.289  0.4089E+01  0.1309E+01
    -12.281  0.3263E+01  0.1336E+01
    -12.273  0.2303E+01  0.1354E+01
    -12.265  0.2747E+01  0.1376E+01
    -12.257  0.3596E+01  0.1405E+01
    -12.249  0.4010E+01  0.1437E+01
    -12.241  0.4660E+01  0.1475E+01
    -12.233  0.4157E+01  0.1508E+01
    -12.225  0.3006E+01  0.1532E+01
    -12.217  0.2738E+01  0.1554E+01
    -12.209  0.3054E+01  0.1578E+01
    -12.201  0.3225E+01  0.1604E+01
    -12.193  0.2849E+01  0.1627E+01
    -12.185  0.2339E+01  0.1646E+01
    -12.177  0.2470E+01  0.1666E+01
    -12.169  0.2718E+01  0.1688E+01
    -12.161  0.2426E+01  0.1707E+01
    -12.152  0.2480E+01  0.1727E+01
    -12.144  0.2616E+01  0.1748E+01
    -12.136  0.2224E+01  0.1766E+01
    -12.128  0.1921E+01  0.1781E+01
    -12.120  0.1858E+01  0.1796E+01
    -12.112  0.1917E+01  0.1812E+01
    -12.104  0.2262E+01  0.1830E+01
    -12.096  0.3213E+01  0.1855E+01
    -12.088  0.3904E+01  0.1887E+01
    -12.080  0.3298E+01  0.1913E+01
    -12.072  0.3319E+01  0.1940E+01
    -12.064  0.3518E+01  0.1968E+01
    -12.056  0.2593E+01  0.1989E+01
    -12.048  0.1841E+01  0.2004E+01
    -12.040  0.1887E+01  0.2019E+01
    -12.032  0.2806E+01  0.2041E+01
    -12.024  0.3914E+01  0.2073E+01
    -12.016  0.3677E+01  0.2102E+01
    -12.008  0.2702E+01  0.2124E+01
    -12.000  0.1899E+01  0.2139E+01
    -11.992  0.1273E+01  0.2149E+01
    -11.984  0.1637E+01  0.2163E+01
    -11.976  0.2919E+01  0.2186E+01
    -11.968  0.3215E+01  0.2212E+01
    -11.960  0.1792E+01  0.2226E+01
    -11.952  0.8767E+00  0.2233E+01
    -11.944  0.1063E+01  0.2242E+01
    -11.936  0.1289E+01  0.2252E+01
    -11.928  0.2067E+01  0.2269E+01
    -11.920  0.4000E+01  0.2301E+01
    -11.912  0.5051E+01  0.2341E+01
    -11.904  0.3550E+01  0.2370E+01
    -11.896  0.1989E+01  0.2386E+01
    -11.888  0.1703E+01  0.2399E+01
    -11.880  0.1923E+01  0.2415E+01
    -11.872  0.2929E+01  0.2438E+01
    -11.864  0.3804E+01  0.2469E+01
    -11.856  0.3237E+01  0.2495E+01
    -11.848  0.2832E+01  0.2518E+01
    -11.840  0.3451E+01  0.2545E+01
    -11.832  0.3584E+01  0.2574E+01
    -11.823  0.2621E+01  0.2595E+01
    -11.815  0.1906E+01  0.2610E+01
    -11.807  0.2394E+01  0.2630E+01
    -11.799  0.2519E+01  0.2650E+01
    -11.791  0.1796E+01  0.2664E+01
    -11.783  0.1418E+01  0.2676E+01
    -11.775  0.1714E+01  0.2689E+01
    -11.767  0.2279E+01  0.2708E+01
    -11.759  0.2494E+01  0.2728E+01
    -11.751  0.3160E+01  0.2753E+01
    -11.743  0.4051E+01  0.2785E+01
    -11.735  0.3320E+01  0.2812E+01
    -11.727  0.2588E+01  0.2833E+01
    -11.719  0.3257E+01  0.2859E+01
    -11.711  0.4102E+01  0.2892E+01
    -11.703  0.4182E+01  0.2925E+01
    -11.695  0.4016E+01  0.2958E+01
    -11.687  0.4956E+01  0.2997E+01
    -11.679  0.4960E+01  0.3037E+01
    -11.671  0.3568E+01  0.3066E+01
    -11.663  0.3181E+01  0.3091E+01
    -11.655  0.3374E+01  0.3118E+01
    -11.647  0.2938E+01  0.3142E+01
    -11.639  0.3226E+01  0.3168E+01
    -11.631  0.3753E+01  0.3198E+01
    -11.623  0.3142E+01  0.3223E+01
    -11.615  0.2065E+01  0.3240E+01
    -11.607  0.2013E+01  0.3256E+01
    -11.599  0.3944E+01  0.3288E+01
    -11.591  0.4724E+01  0.3326E+01
    -11.583  0.4013E+01  0.3358E+01
    -11.575  0.4103E+01  0.3391E+01
    -11.567  0.3255E+01  0.3417E+01
    -11.559  0.2546E+01  0.3437E+01
    -11.551  0.3049E+01  0.3462E+01
    -11.543  0.3589E+01  0.3490E+01
    -11.535  0.4116E+01  0.3524E+01
    -11.527  0.4584E+01  0.3560E+01
    -11.519  0.4135E+01  0.3593E+01
    -11.511  0.2483E+01  0.3613E+01
    -11.502  0.2088E+01  0.3630E+01
    -11.494  0.2748E+01  0.3652E+01
    -11.486  0.4051E+01  0.3685E+01
    -11.478  0.4435E+01  0.3720E+01
    -11.470  0.2596E+01  0.3741E+01
    -11.462  0.1413E+01  0.3752E+01
    -11.454  0.1433E+01  0.3764E+01
    -11.446  0.1956E+01  0.3780E+01
    -11.438  0.2655E+01  0.3801E+01
    -11.430  0.2851E+01  0.3824E+01
    -11.422  0.2239E+01  0.3842E+01
    -11.414  0.1750E+01  0.3856E+01
    -11.406  0.2039E+01  0.3872E+01
    -11.398  0.1702E+01  0.3886E+01
    -11.390  0.9735E+00  0.3894E+01
    -11.382  0.1253E+01  0.3904E+01
    -11.374  0.2139E+01  0.3921E+01
    -11.366  0.1762E+01  0.3935E+01
    -11.358  0.1187E+01  0.3945E+01
    -11.350  0.1228E+01  0.3954E+01
    -11.342  0.8026E+00  0.3961E+01
    -11.334  0.5363E+00  0.3965E+01
    -11.326  0.7073E+00  0.3971E+01
    -11.318  0.5484E+00  0.3975E+01
    -11.310  0.6378E+00  0.3980E+01
    -11.302  0.9206E+00  0.3988E+01
    -11.294  0.6681E+00  0.3993E+01
    -11.286  0.4130E+00  0.3996E+01
    -11.278  0.3210E+00  0.3999E+01
    -11.270  0.1103E+00  0.4000E+01
    -11.262  0.1205E-01  0.4000E+01
    -11.254  0.3984E-03  0.4000E+01
    -11.246  0.3882E-05  0.4000E+01
    -11.238  0.1094E-07  0.4000E+01
    -11.230  0.8806E-11  0.4000E+01
    -11.222  0.2020E-14  0.4000E+01
    -11.214  0.0000E+00  0.4000E+01
    -11.206  0.0000E+00  0.4000E+01
    -11.198  0.0000E+00  0.4000E+01
    -11.190  0.0000E+00  0.4000E+01
    -11.182  0.0000E+00  0.4000E+01
    -11.173  0.0000E+00  0.4000E+01
    -11.165  0.0000E+00  0.4000E+01
    -11.157  0.0000E+00  0.4000E+01
    -11.149  0.0000E+00  0.4000E+01
    -11.141  0.0000E+00  0.4000E+01
    -11.133  0.0000E+00  0.4000E+01
    -11.125  0.0000E+00  0.4000E+01
    -11.117  0.0000E+00  0.4000E+01
    -11.109  0.0000E+00  0.4000E+01
    -11.101  0.0000E+00  0.4000E+01
    -11.093  0.0000E+00  0.4000E+01
    -11.085  0.0000E+00  0.4000E+01
    -11.077  0.0000E+00  0.4000E+01
    -11.069  0.0000E+00  0.4000E+01
    -11.061  0.0000E+00  0.4000E+01
    -11.053  0.0000E+00  0.4000E+01
    -11.045  0.0000E+00  0.4000E+01
    -11.037  0.0000E+00  0.4000E+01
    -11.029  0.0000E+00  0.4000E+01
    -11.021  0.0000E+00  0.4000E+01
    -11.013  0.0000E+00  0.4000E+01
    -11.005  0.0000E+00  0.4000E+01
    -10.997  0.0000E+00  0.4000E+01
    -10.989  0.0000E+00  0.4000E+01
    -10.981  0.0000E+00  0.4000E+01
    -10.973  0.0000E+00  0.4000E+01
    -10.965  0.0000E+00  0.4000E+01
    -10.957  0.0000E+00  0.4000E+01
    -10.949  0.0000E+00  0.4000E+01
    -10.941  0.0000E+00  0.4000E+01
    -10.933  0.0000E+00  0.4000E+01
    -10.925  0.0000E+00  0.4000E+01
    -10.917  0.0000E+00  0.4000E+01
    -10.909  0.0000E+00  0.4000E+01
    -10.901  0.0000E+00  0.4000E+01
    -10.893  0.0000E+00  0.4000E+01
    -10.885  0.0000E+00  0.4000E+01
    -10.877  0.0000E+00  0.4000E+01
    -10.869  0.0000E+00  0.4000E+01
    -10.861  0.0000E+00  0.4000E+01
    -10.853  0.0000E+00  0.4000E+01
    -10.844  0.0000E+00  0.4000E+01
    -10.836  0.0000E+00  0.4000E+01
    -10.828  0.0000E+00  0.4000E+01
    -10.820  0.0000E+00  0.4000E+01
    -10.812  0.0000E+00  0.4000E+01
    -10.804  0.0000E+00  0.4000E+01
    -10.796  0.0000E+00  0.4000E+01
    -10.788  0.0000E+00  0.4000E+01
    -10.780  0.0000E+00  0.4000E+01
    -10.772  0.0000E+00  0.4000E+01
    -10.764  0.0000E+00  0.4000E+01
    -10.756  0.0000E+00  0.4000E+01
    -10.748  0.0000E+00  0.4000E+01
    -10.740  0.0000E+00  0.4000E+01
    -10.732  0.0000E+00  0.4000E+01
    -10.724  0.0000E+00  0.4000E+01
    -10.716  0.0000E+00  0.4000E+01
    -10.708  0.0000E+00  0.4000E+01
    -10.700  0.0000E+00  0.4000E+01
    -10.692  0.0000E+00  0.4000E+01
    -10.684  0.0000E+00  0.4000E+01
    -10.676  0.0000E+00  0.4000E+01
    -10.668  0.0000E+00  0.4000E+01
    -10.660  0.0000E+00  0.4000E+01
    -10.652  0.0000E+00  0.4000E+01
    -10.644  0.0000E+00  0.4000E+01
    -10.636  0.0000E+00  0.4000E+01
    -10.628  0.0000E+00  0.4000E+01
    -10.620  0.0000E+00  0.4000E+01
    -10.612  0.0000E+00  0.4000E+01
    -10.604  0.0000E+00  0.4000E+01
    -10.596  0.0000E+00  0.4000E+01
    -10.588  0.0000E+00  0.4000E+01
    -10.580  0.0000E+00  0.4000E+01
    -10.572  0.0000E+00  0.4000E+01
    -10.564  0.0000E+00  0.4000E+01
    -10.556  0.0000E+00  0.4000E+01
    -10.548  0.0000E+00  0.4000E+01
    -10.540  0.0000E+00  0.4000E+01
    -10.532  0.0000E+00  0.4000E+01
    -10.523  0.0000E+00  0.4000E+01
    -10.515  0.0000E+00  0.4000E+01
    -10.507  0.0000E+00  0.4000E+01
    -10.499  0.0000E+00  0.4000E+01
    -10.491  0.0000E+00  0.4000E+01
    -10.483  0.0000E+00  0.4000E+01
    -10.475  0.0000E+00  0.4000E+01
    -10.467  0.0000E+00  0.4000E+01
    -10.459  0.0000E+00  0.4000E+01
    -10.451  0.0000E+00  0.4000E+01
    -10.443  0.0000E+00  0.4000E+01
    -10.435  0.0000E+00  0.4000E+01
    -10.427  0.0000E+00  0.4000E+01
    -10.419  0.0000E+00  0.4000E+01
    -10.411  0.0000E+00  0.4000E+01
    -10.403  0.0000E+00  0.4000E+01
    -10.395  0.0000E+00  0.4000E+01
    -10.387  0.0000E+00  0.4000E+01
    -10.379  0.0000E+00  0.4000E+01
    -10.371  0.0000E+00  0.4000E+01
    -10.363  0.0000E+00  0.4000E+01
    -10.355  0.0000E+00  0.4000E+01
    -10.347  0.0000E+00  0.4000E+01
    -10.339  0.0000E+00  0.4000E+01
    -10.331  0.0000E+00  0.4000E+01
    -10.323  0.0000E+00  0.4000E+01
    -10.315  0.0000E+00  0.4000E+01
    -10.307  0.0000E+00  0.4000E+01
    -10.299  0.0000E+00  0.4000E+01
    -10.291  0.0000E+00  0.4000E+01
    -10.283  0.0000E+00  0.4000E+01
    -10.275  0.0000E+00  0.4000E+01
    -10.267  0.0000E+00  0.4000E+01
    -10.259  0.0000E+00  0.4000E+01
    -10.251  0.0000E+00  0.4000E+01
    -10.243  0.0000E+00  0.4000E+01
    -10.235  0.0000E+00  0.4000E+01
    -10.227  0.0000E+00  0.4000E+01
    -10.219  0.0000E+00  0.4000E+01
    -10.211  0.0000E+00  0.4000E+01
    -10.203  0.0000E+00  0.4000E+01
    -10.194  0.0000E+00  0.4000E+01
    -10.186  0.0000E+00  0.4000E+01
    -10.178  0.0000E+00  0.4000E+01
    -10.170  0.0000E+00  0.4000E+01
    -10.162  0.0000E+00  0.4000E+01
    -10.154  0.0000E+00  0.4000E+01
    -10.146  0.0000E+00  0.4000E+01
    -10.138  0.0000E+00  0.4000E+01
    -10.130  0.0000E+00  0.4000E+01
    -10.122  0.0000E+00  0.4000E+01
    -10.114  0.0000E+00  0.4000E+01
    -10.106  0.0000E+00  0.4000E+01
    -10.098  0.0000E+00  0.4000E+01
    -10.090  0.0000E+00  0.4000E+01
    -10.082  0.0000E+00  0.4000E+01
    -10.074  0.0000E+00  0.4000E+01
    -10.066  0.0000E+00  0.4000E+01
    -10.058  0.0000E+00  0.4000E+01
    -10.050  0.0000E+00  0.4000E+01
    -10.042  0.0000E+00  0.4000E+01
    -10.034  0.0000E+00  0.4000E+01
    -10.026  0.0000E+00  0.4000E+01
    -10.018  0.0000E+00  0.4000E+01
    -10.010  0.0000E+00  0.4000E+01
    -10.002  0.0000E+00  0.4000E+01
     -9.994  0.0000E+00  0.4000E+01
     -9.986  0.0000E+00  0.4000E+01
     -9.978  0.0000E+00  0.4000E+01
     -9.970  0.0000E+00  0.4000E+01
     -9.962  0.0000E+00  0.4000E+01
     -9.954  0.0000E+00  0.4000E+01
     -9.946  0.0000E+00  0.4000E+01
     -9.938  0.0000E+00  0.4000E+01
     -9.930  0.0000E+00  0.4000E+01
     -9.922  0.0000E+00  0.4000E+01
     -9.914  0.0000E+00  0.4000E+01
     -9.906  0.0000E+00  0.4000E+01
     -9.898  0.0000E+00  0.4000E+01
     -9.890  0.0000E+00  0.4000E+01
     -9.882  0.0000E+00  0.4000E+01
     -9.874  0.0000E+00  0.4000E+01
     -9.865  0.0000E+00  0.4000E+01
     -9.857  0.0000E+00  0.4000E+01
     -9.849  0.0000E+00  0.4000E+01
     -9.841  0.0000E+00  0.4000E+01
     -9.833  0.0000E+00  0.4000E+01
     -9.825  0.0000E+00  0.4000E+01
     -9.817  0.0000E+00  0.4000E+01
     -9.809  0.0000E+00  0.4000E+01
     -9.801  0.0000E+00  0.4000E+01
     -9.793  0.0000E+00  0.4000E+01
     -9.785  0.0000E+00  0.4000E+01
     -9.777  0.0000E+00  0.4000E+01
     -9.769  0.0000E+00  0.4000E+01
     -9.761  0.0000E+00  0.4000E+01
     -9.753  0.0000E+00  0.4000E+01
     -9.745  0.0000E+00  0.4000E+01
     -9.737  0.0000E+00  0.4000E+01
     -9.729  0.0000E+00  0.4000E+01
     -9.721  0.0000E+00  0.4000E+01
     -9.713  0.0000E+00  0.4000E+01
     -9.705  0.0000E+00  0.4000E+01
     -9.697  0.0000E+00  0.4000E+01
     -9.689  0.0000E+00  0.4000E+01
     -9.681  0.0000E+00  0.4000E+01
     -9.673  0.0000E+00  0.4000E+01
     -9.665  0.0000E+00  0.4000E+01
     -9.657  0.0000E+00  0.4000E+01
     -9.649  0.0000E+00  0.4000E+01
     -9.641  0.0000E+00  0.4000E+01
     -9.633  0.0000E+00  0.4000E+01
     -9.625  0.0000E+00  0.4000E+01
     -9.617  0.0000E+00  0.4000E+01
     -9.609  0.0000E+00  0.4000E+01
     -9.601  0.0000E+00  0.4000E+01
     -9.593  0.0000E+00  0.4000E+01
     -9.585  0.0000E+00  0.4000E+01
     -9.577  0.0000E+00  0.4000E+01
     -9.569  0.0000E+00  0.4000E+01
     -9.561  0.0000E+00  0.4000E+01
     -9.553  0.0000E+00  0.4000E+01
     -9.544  0.0000E+00  0.4000E+01
     -9.536  0.0000E+00  0.4000E+01
     -9.528  0.0000E+00  0.4000E+01
     -9.520  0.0000E+00  0.4000E+01
     -9.512  0.0000E+00  0.4000E+01
     -9.504  0.0000E+00  0.4000E+01
     -9.496  0.0000E+00  0.4000E+01
     -9.488  0.0000E+00  0.4000E+01
     -9.480  0.0000E+00  0.4000E+01
     -9.472  0.0000E+00  0.4000E+01
     -9.464  0.0000E+00  0.4000E+01
     -9.456  0.0000E+00  0.4000E+01
     -9.448  0.0000E+00  0.4000E+01
     -9.440  0.0000E+00  0.4000E+01
     -9.432  0.0000E+00  0.4000E+01
     -9.424  0.0000E+00  0.4000E+01
     -9.416  0.0000E+00  0.4000E+01
     -9.408  0.0000E+00  0.4000E+01
     -9.400  0.0000E+00  0.4000E+01
     -9.392  0.0000E+00  0.4000E+01
     -9.384  0.0000E+00  0.4000E+01
     -9.376  0.0000E+00  0.4000E+01
     -9.368  0.0000E+00  0.4000E+01
     -9.360  0.0000E+00  0.4000E+01
     -9.352  0.0000E+00  0.4000E+01
     -9.344  0.0000E+00  0.4000E+01
     -9.336  0.0000E+00  0.4000E+01
     -9.328  0.0000E+00  0.4000E+01
     -9.320  0.0000E+00  0.4000E+01
     -9.312  0.0000E+00  0.4000E+01
     -9.304  0.0000E+00  0.4000E+01
     -9.296  0.0000E+00  0.4000E+01
     -9.288  0.0000E+00  0.4000E+01
     -9.280  0.0000E+00  0.4000E+01
     -9.272  0.0000E+00  0.4000E+01
     -9.264  0.0000E+00  0.4000E+01
     -9.256  0.0000E+00  0.4000E+01
     -9.248  0.0000E+00  0.4000E+01
     -9.240  0.0000E+00  0.4000E+01
     -9.232  0.0000E+00  0.4000E+01
     -9.224  0.0000E+00  0.4000E+01
     -9.215  0.0000E+00  0.4000E+01
     -9.207  0.0000E+00  0.4000E+01
     -9.199  0.0000E+00  0.4000E+01
     -9.191  0.0000E+00  0.4000E+01
     -9.183  0.0000E+00  0.4000E+01
     -9.175  0.0000E+00  0.4000E+01
     -9.167  0.0000E+00  0.4000E+01
     -9.159  0.0000E+00  0.4000E+01
     -9.151  0.0000E+00  0.4000E+01
     -9.143  0.0000E+00  0.4000E+01
     -9.135  0.0000E+00  0.4000E+01
     -9.127  0.0000E+00  0.4000E+01
     -9.119  0.0000E+00  0.4000E+01
     -9.111  0.0000E+00  0.4000E+01
     -9.103  0.0000E+00  0.4000E+01
     -9.095  0.0000E+00  0.4000E+01
     -9.087  0.0000E+00  0.4000E+01
     -9.079  0.0000E+00  0.4000E+01
     -9.071  0.0000E+00  0.4000E+01
     -9.063  0.0000E+00  0.4000E+01
     -9.055  0.0000E+00  0.4000E+01
     -9.047  0.0000E+00  0.4000E+01
     -9.039  0.0000E+00  0.4000E+01
     -9.031  0.0000E+00  0.4000E+01
     -9.023  0.0000E+00  0.4000E+01
     -9.015  0.0000E+00  0.4000E+01
     -9.007  0.0000E+00  0.4000E+01
     -8.999  0.0000E+00  0.4000E+01
     -8.991  0.0000E+00  0.4000E+01
     -8.983  0.0000E+00  0.4000E+01
     -8.975  0.0000E+00  0.4000E+01
     -8.967  0.0000E+00  0.4000E+01
     -8.959  0.0000E+00  0.4000E+01
     -8.951  0.0000E+00  0.4000E+01
     -8.943  0.0000E+00  0.4000E+01
     -8.935  0.0000E+00  0.4000E+01
     -8.927  0.0000E+00  0.4000E+01
     -8.919  0.0000E+00  0.4000E+01
     -8.911  0.0000E+00  0.4000E+01
     -8.903  0.0000E+00  0.4000E+01
     -8.895  0.0000E+00  0.4000E+01
     -8.886  0.0000E+00  0.4000E+01
     -8.878  0.9663E-15  0.4000E+01
     -8.870  0.5067E-11  0.4000E+01
     -8.862  0.7688E-08  0.4000E+01
     -8.854  0.3325E-05  0.4000E+01
     -8.846  0.4150E-03  0.4000E+01
     -8.838  0.1521E-01  0.4000E+01
     -8.830  0.1677E+00  0.4001E+01
     -8.822  0.5703E+00  0.4006E+01
     -8.814  0.6401E+00  0.4011E+01
     -8.806  0.5476E+00  0.4016E+01
     -8.798  0.1145E+01  0.4025E+01
     -8.790  0.1262E+01  0.4035E+01
     -8.782  0.1057E+01  0.4043E+01
     -8.774  0.2158E+01  0.4061E+01
     -8.766  0.2650E+01  0.4082E+01
     -8.758  0.2161E+01  0.4099E+01
     -8.750  0.2457E+01  0.4119E+01
     -8.742  0.2127E+01  0.4136E+01
     -8.734  0.1274E+01  0.4146E+01
     -8.726  0.7832E+00  0.4153E+01
     -8.718  0.1526E+01  0.4165E+01
     -8.710  0.4087E+01  0.4198E+01
     -8.702  0.4954E+01  0.4237E+01
     -8.694  0.4105E+01  0.4270E+01
     -8.686  0.4699E+01  0.4308E+01
     -8.678  0.3594E+01  0.4337E+01
     -8.670  0.2084E+01  0.4354E+01
     -8.662  0.3407E+01  0.4381E+01
     -8.654  0.6343E+01  0.4432E+01
     -8.646  0.7527E+01  0.4492E+01
     -8.638  0.6423E+01  0.4544E+01
     -8.630  0.6688E+01  0.4597E+01
     -8.622  0.6041E+01  0.4646E+01
     -8.614  0.4883E+01  0.4685E+01
     -8.606  0.6957E+01  0.4741E+01
     -8.598  0.8512E+01  0.4809E+01
     -8.590  0.7123E+01  0.4866E+01
     -8.582  0.6789E+01  0.4921E+01
     -8.574  0.7031E+01  0.4977E+01
     -8.566  0.6699E+01  0.5031E+01
     -8.557  0.7254E+01  0.5089E+01
     -8.549  0.7372E+01  0.5148E+01
     -8.541  0.6065E+01  0.5197E+01
     -8.533  0.5986E+01  0.5245E+01
     -8.525  0.6291E+01  0.5296E+01
     -8.517  0.6743E+01  0.5350E+01
     -8.509  0.6690E+01  0.5403E+01
     -8.501  0.5506E+01  0.5448E+01
     -8.493  0.5495E+01  0.5492E+01
     -8.485  0.7161E+01  0.5549E+01
     -8.477  0.8086E+01  0.5614E+01
     -8.469  0.8353E+01  0.5681E+01
     -8.461  0.7950E+01  0.5745E+01
     -8.453  0.6832E+01  0.5800E+01
     -8.445  0.6149E+01  0.5849E+01
     -8.437  0.5198E+01  0.5891E+01
     -8.429  0.5205E+01  0.5933E+01
     -8.421  0.5673E+01  0.5978E+01
     -8.413  0.5179E+01  0.6020E+01
     -8.405  0.4258E+01  0.6054E+01
     -8.397  0.3548E+01  0.6082E+01
     -8.389  0.3166E+01  0.6108E+01
     -8.381  0.2574E+01  0.6128E+01
     -8.373  0.3617E+01  0.6157E+01
     -8.365  0.5256E+01  0.6200E+01
     -8.357  0.5300E+01  0.6242E+01
     -8.349  0.4184E+01  0.6276E+01
     -8.341  0.3675E+01  0.6305E+01
     -8.333  0.4597E+01  0.6342E+01
     -8.325  0.4886E+01  0.6381E+01
     -8.317  0.4245E+01  0.6415E+01
     -8.309  0.4577E+01  0.6452E+01
     -8.301  0.5244E+01  0.6494E+01
     -8.293  0.4996E+01  0.6534E+01
     -8.285  0.4952E+01  0.6574E+01
     -8.277  0.4680E+01  0.6611E+01
     -8.269  0.4719E+01  0.6649E+01
     -8.261  0.5586E+01  0.6694E+01
     -8.253  0.5456E+01  0.6738E+01
     -8.245  0.5182E+01  0.6780E+01
     -8.236  0.6044E+01  0.6828E+01
     -8.228  0.5743E+01  0.6874E+01
     -8.220  0.4694E+01  0.6912E+01
     -8.212  0.4401E+01  0.6947E+01
     -8.204  0.4620E+01  0.6984E+01
     -8.196  0.4644E+01  0.7021E+01
     -8.188  0.4338E+01  0.7056E+01
     -8.180  0.3782E+01  0.7087E+01
     -8.172  0.4137E+01  0.7120E+01
     -8.164  0.4557E+01  0.7156E+01
     -8.156  0.3907E+01  0.7188E+01
     -8.148  0.4140E+01  0.7221E+01
     -8.140  0.3748E+01  0.7251E+01
     -8.132  0.3725E+01  0.7281E+01
     -8.124  0.4929E+01  0.7320E+01
     -8.116  0.5464E+01  0.7364E+01
     -8.108  0.4786E+01  0.7403E+01
     -8.100  0.5317E+01  0.7445E+01
     -8.092  0.6378E+01  0.7497E+01
     -8.084  0.4494E+01  0.7533E+01
     -8.076  0.2389E+01  0.7552E+01
     -8.068  0.2823E+01  0.7574E+01
     -8.060  0.4685E+01  0.7612E+01
     -8.052  0.5300E+01  0.7655E+01
     -8.044  0.3469E+01  0.7682E+01
     -8.036  0.2026E+01  0.7699E+01
     -8.028  0.1913E+01  0.7714E+01
     -8.020  0.2258E+01  0.7732E+01
     -8.012  0.2829E+01  0.7755E+01
     -8.004  0.2769E+01  0.7777E+01
     -7.996  0.2667E+01  0.7798E+01
     -7.988  0.2671E+01  0.7820E+01
     -7.980  0.1532E+01  0.7832E+01
     -7.972  0.4802E+00  0.7836E+01
     -7.964  0.8793E+00  0.7843E+01
     -7.956  0.1942E+01  0.7859E+01
     -7.948  0.2089E+01  0.7875E+01
     -7.940  0.1086E+01  0.7884E+01
     -7.932  0.4729E+00  0.7888E+01
     -7.924  0.9746E+00  0.7896E+01
     -7.916  0.1836E+01  0.7910E+01
     -7.907  0.2006E+01  0.7927E+01
     -7.899  0.1219E+01  0.7936E+01
     -7.891  0.9718E+00  0.7944E+01
     -7.883  0.1191E+01  0.7954E+01
     -7.875  0.8841E+00  0.7961E+01
     -7.867  0.6639E+00  0.7966E+01
     -7.859  0.6912E+00  0.7972E+01
     -7.851  0.3160E+00  0.7974E+01
     -7.843  0.5039E-01  0.7975E+01
     -7.835  0.7790E-01  0.7975E+01
     -7.827  0.4064E+00  0.7979E+01
     -7.819  0.6846E+00  0.7984E+01
     -7.811  0.4506E+00  0.7988E+01
     -7.803  0.5083E+00  0.7992E+01
     -7.795  0.6732E+00  0.7997E+01
     -7.787  0.3139E+00  0.8000E+01
     -7.779  0.4565E-01  0.8000E+01
     -7.771  0.2016E-02  0.8000E+01
     -7.763  0.2638E-04  0.8000E+01
     -7.755  0.1003E-06  0.8000E+01
     -7.747  0.1091E-09  0.8000E+01
     -7.739  0.3373E-13  0.8000E+01
     -7.731  0.0000E+00  0.8000E+01
     -7.723  0.0000E+00  0.8000E+01
     -7.715  0.0000E+00  0.8000E+01
     -7.707  0.0000E+00  0.8000E+01
     -7.699  0.0000E+00  0.8000E+01
     -7.691  0.0000E+00  0.8000E+01
     -7.683  0.0000E+00  0.8000E+01
     -7.675  0.0000E+00  0.8000E+01
     -7.667  0.0000E+00  0.8000E+01
     -7.659  0.0000E+00  0.8000E+01
     -7.651  0.0000E+00  0.8000E+01
     -7.643  0.0000E+00  0.8000E+01
     -7.635  0.0000E+00  0.8000E+01
     -7.627  0.0000E+00  0.8000E+01
     -7.619  0.0000E+00  0.8000E+01
     -7.611  0.0000E+00  0.8000E+01
     -7.603  0.0000E+00  0.8000E+01
     -7.595  0.0000E+00  0.8000E+01
     -7.587  0.0000E+00  0.8000E+01
     -7.578  0.0000E+00  0.8000E+01
     -7.570  0.0000E+00  0.8000E+01
     -7.562  0.0000E+00  0.8000E+01
     -7.554  0.0000E+00  0.8000E+01
     -7.546  0.0000E+00  0.8000E+01
     -7.538  0.0000E+00  0.8000E+01
     -7.530  0.0000E+00  0.8000E+01
     -7.522  0.0000E+00  0.8000E+01
     -7.514  0.0000E+00  0.8000E+01
     -7.506  0.0000E+00  0.8000E+01
     -7.498  0.0000E+00  0.8000E+01
     -7.490  0.0000E+00  0.8000E+01
     -7.482  0.0000E+00  0.8000E+01
     -7.474  0.0000E+00  0.8000E+01
     -7.466  0.0000E+00  0.8000E+01
     -7.458  0.0000E+00  0.8000E+01
     -7.450  0.0000E+00  0.8000E+01
     -7.442  0.0000E+00  0.8000E+01
     -7.434  0.0000E+00  0.8000E+01
     -7.426  0.0000E+00  0.8000E+01
     -7.418  0.0000E+00  0.8000E+01
     -7.410  0.0000E+00  0.8000E+01
     -7.402  0.0000E+00  0.8000E+01
     -7.394  0.0000E+00  0.8000E+01
     -7.386  0.0000E+00  0.8000E+01
     -7.378  0.0000E+00  0.8000E+01
     -7.370  0.0000E+00  0.8000E+01
     -7.362  0.0000E+00  0.8000E+01
     -7.354  0.0000E+00  0.8000E+01
     -7.346  0.0000E+00  0.8000E+01
     -7.338  0.0000E+00  0.8000E+01
     -7.330  0.0000E+00  0.8000E+01
     -7.322  0.0000E+00  0.8000E+01
     -7.314  0.0000E+00  0.8000E+01
     -7.306  0.0000E+00  0.8000E+01
     -7.298  0.0000E+00  0.8000E+01
     -7.290  0.0000E+00  0.8000E+01
     -7.282  0.0000E+00  0.8000E+01
     -7.274  0.0000E+00  0.8000E+01
     -7.266  0.0000E+00  0.8000E+01
     -7.257  0.0000E+00  0.8000E+01
     -7.249  0.0000E+00  0.8000E+01
     -7.241  0.0000E+00  0.8000E+01
     -7.233  0.0000E+00  0.8000E+01
     -7.225  0.0000E+00  0.8000E+01
     -7.217  0.0000E+00  0.8000E+01
     -7.209  0.0000E+00  0.8000E+01
     -7.201  0.0000E+00  0.8000E+01
     -7.193  0.0000E+00  0.8000E+01
     -7.185  0.0000E+00  0.8000E+01
     -7.177  0.0000E+00  0.8000E+01
     -7.169  0.0000E+00  0.8000E+01
     -7.161  0.0000E+00  0.8000E+01
     -7.153  0.0000E+00  0.8000E+01
     -7.145  0.0000E+00  0.8000E+01
     -7.137  0.0000E+00  0.8000E+01
     -7.129  0.0000E+00  0.8000E+01
     -7.121  0.0000E+00  0.8000E+01
     -7.113  0.0000E+00  0.8000E+01
     -7.105  0.0000E+00  0.8000E+01
     -7.097  0.0000E+00  0.8000E+01
     -7.089  0.0000E+00  0.8000E+01
     -7.081  0.0000E+00  0.8000E+01
     -7.073  0.0000E+00  0.8000E+01
     -7.065  0.0000E+00  0.8000E+01
     -7.057  0.0000E+00  0.8000E+01
     -7.049  0.0000E+00  0.8000E+01
     -7.041  0.0000E+00  0.8000E+01
     -7.033  0.0000E+00  0.8000E+01
     -7.025  0.0000E+00  0.8000E+01
     -7.017  0.0000E+00  0.8000E+01
     -7.009  0.0000E+00  0.8000E+01
     -7.001  0.0000E+00  0.8000E+01
     -6.993  0.0000E+00  0.8000E+01
     -6.985  0.0000E+00  0.8000E+01
     -6.977  0.0000E+00  0.8000E+01
     -6.969  0.0000E+00  0.8000E+01
     -6.961  0.3523E-13  0.8000E+01
     -6.953  0.1135E-09  0.8000E+01
     -6.945  0.1036E-06  0.8000E+01
     -6.937  0.2709E-04  0.8000E+01
     -6.928  0.2056E-02  0.8000E+01
     -6.920  0.4627E-01  0.8000E+01
     -6.912  0.3161E+00  0.8003E+01
     -6.904  0.6713E+00  0.8008E+01
     -6.896  0.4608E+00  0.8012E+01
     -6.888  0.2466E+00  0.8014E+01
     -6.880  0.5569E+00  0.8018E+01
     -6.872  0.6207E+00  0.8023E+01
     -6.864  0.2194E+00  0.8025E+01
     -6.856  0.2403E-01  0.8025E+01
     -6.848  0.4032E-02  0.8025E+01
     -6.840  0.6274E-01  0.8026E+01
     -6.832  0.3700E+00  0.8029E+01
     -6.824  0.6795E+00  0.8034E+01
     -6.816  0.3924E+00  0.8037E+01
     -6.808  0.7061E-01  0.8038E+01
     -6.800  0.3876E-02  0.8038E+01
     -6.792  0.6910E-04  0.8038E+01
     -6.784  0.6371E-03  0.8038E+01
     -6.776  0.2060E-01  0.8038E+01
     -6.768  0.2008E+00  0.8040E+01
     -6.760  0.6045E+00  0.8045E+01
     -6.752  0.5714E+00  0.8049E+01
     -6.744  0.1837E+00  0.8051E+01
     -6.736  0.1791E+00  0.8052E+01
     -6.728  0.5649E+00  0.8057E+01
     -6.720  0.6147E+00  0.8062E+01
     -6.712  0.2866E+00  0.8064E+01
     -6.704  0.4561E+00  0.8068E+01
     -6.696  0.8759E+00  0.8075E+01
     -6.688  0.9498E+00  0.8082E+01
     -6.680  0.6301E+00  0.8087E+01
     -6.672  0.1771E+00  0.8089E+01
     -6.664  0.7707E-01  0.8089E+01
     -6.656  0.4861E+00  0.8093E+01
     -6.648  0.1248E+01  0.8103E+01
     -6.640  0.1091E+01  0.8112E+01
     -6.632  0.6511E+00  0.8117E+01
     -6.624  0.1128E+01  0.8126E+01
     -6.616  0.1172E+01  0.8136E+01
     -6.608  0.4391E+00  0.8139E+01
     -6.599  0.1591E+00  0.8141E+01
     -6.591  0.6578E+00  0.8146E+01
     -6.583  0.1408E+01  0.8157E+01
     -6.575  0.1470E+01  0.8169E+01
     -6.567  0.1482E+01  0.8181E+01
     -6.559  0.9620E+00  0.8189E+01
     -6.551  0.3205E+00  0.8191E+01
     -6.543  0.4608E+00  0.8195E+01
     -6.535  0.6760E+00  0.8200E+01
     -6.527  0.3871E+00  0.8203E+01
     -6.519  0.4776E+00  0.8207E+01
     -6.511  0.1040E+01  0.8216E+01
     -6.503  0.1108E+01  0.8224E+01
     -6.495  0.7603E+00  0.8231E+01
     -6.487  0.7394E+00  0.8236E+01
     -6.479  0.4854E+00  0.8240E+01
     -6.471  0.1281E+00  0.8241E+01
     -6.463  0.2398E+00  0.8243E+01
     -6.455  0.9536E+00  0.8251E+01
     -6.447  0.1437E+01  0.8262E+01
     -6.439  0.1296E+01  0.8273E+01
     -6.431  0.1536E+01  0.8285E+01
     -6.423  0.2178E+01  0.8303E+01
     -6.415  0.2407E+01  0.8322E+01
     -6.407  0.1471E+01  0.8334E+01
     -6.399  0.7440E+00  0.8340E+01
     -6.391  0.8955E+00  0.8347E+01
     -6.383  0.1262E+01  0.8357E+01
     -6.375  0.1956E+01  0.8373E+01
     -6.367  0.2429E+01  0.8392E+01
     -6.359  0.2364E+01  0.8411E+01
     -6.351  0.1759E+01  0.8425E+01
     -6.343  0.1248E+01  0.8435E+01
     -6.335  0.8226E+00  0.8442E+01
     -6.327  0.4170E+00  0.8445E+01
     -6.319  0.9651E+00  0.8453E+01
     -6.311  0.2000E+01  0.8469E+01
     -6.303  0.1522E+01  0.8481E+01
     -6.295  0.1396E+01  0.8493E+01
     -6.287  0.2805E+01  0.8515E+01
     -6.278  0.2995E+01  0.8539E+01
     -6.270  0.2072E+01  0.8556E+01
     -6.262  0.2216E+01  0.8573E+01
     -6.254  0.2880E+01  0.8597E+01
     -6.246  0.2854E+01  0.8619E+01
     -6.238  0.2484E+01  0.8639E+01
     -6.230  0.2209E+01  0.8657E+01
     -6.222  0.2804E+01  0.8680E+01
     -6.214  0.3088E+01  0.8704E+01
     -6.206  0.2369E+01  0.8723E+01
     -6.198  0.1947E+01  0.8739E+01
     -6.190  0.2028E+01  0.8755E+01
     -6.182  0.2630E+01  0.8776E+01
     -6.174  0.3472E+01  0.8804E+01
     -6.166  0.4156E+01  0.8838E+01
     -6.158  0.3698E+01  0.8867E+01
     -6.150  0.3991E+01  0.8899E+01
     -6.142  0.5417E+01  0.8943E+01
     -6.134  0.6592E+01  0.8996E+01
     -6.126  0.5413E+01  0.9039E+01
     -6.118  0.3217E+01  0.9065E+01
     -6.110  0.2711E+01  0.9087E+01
     -6.102  0.3777E+01  0.9117E+01
     -6.094  0.4314E+01  0.9152E+01
     -6.086  0.3453E+01  0.9179E+01
     -6.078  0.3343E+01  0.9206E+01
     -6.070  0.3755E+01  0.9236E+01
     -6.062  0.3867E+01  0.9267E+01
     -6.054  0.3836E+01  0.9298E+01
     -6.046  0.3486E+01  0.9326E+01
     -6.038  0.3149E+01  0.9351E+01
     -6.030  0.3066E+01  0.9376E+01
     -6.022  0.2938E+01  0.9400E+01
     -6.014  0.3196E+01  0.9425E+01
     -6.006  0.3221E+01  0.9451E+01
     -5.998  0.3630E+01  0.9480E+01
     -5.990  0.3909E+01  0.9512E+01
     -5.982  0.3709E+01  0.9541E+01
     -5.974  0.4571E+01  0.9578E+01
     -5.966  0.5476E+01  0.9622E+01
     -5.958  0.5813E+01  0.9669E+01
     -5.949  0.5800E+01  0.9715E+01
     -5.941  0.5125E+01  0.9756E+01
     -5.933  0.4141E+01  0.9789E+01
     -5.925  0.3598E+01  0.9818E+01
     -5.917  0.3834E+01  0.9849E+01
     -5.909  0.3881E+01  0.9880E+01
     -5.901  0.4642E+01  0.9917E+01
     -5.893  0.5396E+01  0.9961E+01
     -5.885  0.4157E+01  0.9994E+01
     -5.877  0.2788E+01  0.1002E+02
     -5.869  0.2859E+01  0.1004E+02
     -5.861  0.3589E+01  0.1007E+02
     -5.853  0.3469E+01  0.1010E+02
     -5.845  0.3326E+01  0.1012E+02
     -5.837  0.3409E+01  0.1015E+02
     -5.829  0.2859E+01  0.1017E+02
     -5.821  0.3408E+01  0.1020E+02
     -5.813  0.4672E+01  0.1024E+02
     -5.805  0.5534E+01  0.1028E+02
     -5.797  0.6182E+01  0.1033E+02
     -5.789  0.6380E+01  0.1038E+02
     -5.781  0.5834E+01  0.1043E+02
     -5.773  0.5051E+01  0.1047E+02
     -5.765  0.3559E+01  0.1050E+02
     -5.757  0.2713E+01  0.1052E+02
     -5.749  0.3612E+01  0.1055E+02
     -5.741  0.3638E+01  0.1058E+02
     -5.733  0.2316E+01  0.1060E+02
     -5.725  0.2191E+01  0.1062E+02
     -5.717  0.3172E+01  0.1064E+02
     -5.709  0.3781E+01  0.1067E+02
     -5.701  0.3826E+01  0.1070E+02
     -5.693  0.3177E+01  0.1073E+02
     -5.685  0.3446E+01  0.1075E+02
     -5.677  0.5356E+01  0.1080E+02
     -5.669  0.5762E+01  0.1084E+02
     -5.661  0.4050E+01  0.1088E+02
     -5.653  0.3116E+01  0.1090E+02
     -5.645  0.3559E+01  0.1093E+02
     -5.637  0.4321E+01  0.1096E+02
     -5.629  0.3836E+01  0.1100E+02
     -5.620  0.2732E+01  0.1102E+02
     -5.612  0.4054E+01  0.1105E+02
     -5.604  0.5955E+01  0.1110E+02
     -5.596  0.5214E+01  0.1114E+02
     -5.588  0.3468E+01  0.1117E+02
     -5.580  0.4208E+01  0.1120E+02
     -5.572  0.5262E+01  0.1124E+02
     -5.564  0.4400E+01  0.1128E+02
     -5.556  0.3226E+01  0.1130E+02
     -5.548  0.2067E+01  0.1132E+02
     -5.540  0.1810E+01  0.1134E+02
     -5.532  0.2797E+01  0.1136E+02
     -5.524  0.4668E+01  0.1140E+02
     -5.516  0.6442E+01  0.1145E+02
     -5.508  0.7686E+01  0.1151E+02
     -5.500  0.6845E+01  0.1156E+02
     -5.492  0.4898E+01  0.1160E+02
     -5.484  0.3838E+01  0.1163E+02
     -5.476  0.3166E+01  0.1166E+02
     -5.468  0.2960E+01  0.1168E+02
     -5.460  0.4300E+01  0.1172E+02
     -5.452  0.5177E+01  0.1176E+02
     -5.444  0.4302E+01  0.1179E+02
     -5.436  0.4268E+01  0.1183E+02
     -5.428  0.5092E+01  0.1187E+02
     -5.420  0.6031E+01  0.1192E+02
     -5.412  0.6419E+01  0.1197E+02
     -5.404  0.5653E+01  0.1201E+02
     -5.396  0.3966E+01  0.1205E+02
     -5.388  0.2720E+01  0.1207E+02
     -5.380  0.2516E+01  0.1209E+02
     -5.372  0.3825E+01  0.1212E+02
     -5.364  0.5163E+01  0.1216E+02
     -5.356  0.5422E+01  0.1220E+02
     -5.348  0.4628E+01  0.1224E+02
     -5.340  0.5720E+01  0.1229E+02
     -5.332  0.5906E+01  0.1233E+02
     -5.324  0.4097E+01  0.1237E+02
     -5.316  0.4258E+01  0.1240E+02
     -5.308  0.5070E+01  0.1244E+02
     -5.299  0.4865E+01  0.1248E+02
     -5.291  0.4658E+01  0.1252E+02
     -5.283  0.4574E+01  0.1255E+02
     -5.275  0.4692E+01  0.1259E+02
     -5.267  0.5159E+01  0.1263E+02
     -5.259  0.5570E+01  0.1268E+02
     -5.251  0.4605E+01  0.1272E+02
     -5.243  0.3684E+01  0.1275E+02
     -5.235  0.3700E+01  0.1277E+02
     -5.227  0.3328E+01  0.1280E+02
     -5.219  0.3461E+01  0.1283E+02
     -5.211  0.4289E+01  0.1286E+02
     -5.203  0.5750E+01  0.1291E+02
     -5.195  0.4934E+01  0.1295E+02
     -5.187  0.3630E+01  0.1298E+02
     -5.179  0.3585E+01  0.1301E+02
     -5.171  0.4211E+01  0.1304E+02
     -5.163  0.4446E+01  0.1308E+02
     -5.155  0.4118E+01  0.1311E+02
     -5.147  0.4362E+01  0.1314E+02
     -5.139  0.3895E+01  0.1318E+02
     -5.131  0.4013E+01  0.1321E+02
     -5.123  0.4615E+01  0.1325E+02
     -5.115  0.4823E+01  0.1328E+02
     -5.107  0.4450E+01  0.1332E+02
     -5.099  0.2877E+01  0.1334E+02
     -5.091  0.1849E+01  0.1336E+02
     -5.083  0.2615E+01  0.1338E+02
     -5.075  0.3930E+01  0.1341E+02
     -5.067  0.3318E+01  0.1344E+02
     -5.059  0.2888E+01  0.1346E+02
     -5.051  0.3320E+01  0.1349E+02
     -5.043  0.2579E+01  0.1351E+02
     -5.035  0.2046E+01  0.1352E+02
     -5.027  0.2760E+01  0.1355E+02
     -5.019  0.3813E+01  0.1358E+02
     -5.011  0.4149E+01  0.1361E+02
     -5.003  0.3807E+01  0.1364E+02
     -4.995  0.3387E+01  0.1367E+02
     -4.987  0.2506E+01  0.1369E+02
     -4.979  0.1777E+01  0.1370E+02
     -4.970  0.2221E+01  0.1372E+02
     -4.962  0.2224E+01  0.1374E+02
     -4.954  0.2025E+01  0.1375E+02
     -4.946  0.2193E+01  0.1377E+02
     -4.938  0.2618E+01  0.1379E+02
     -4.930  0.5229E+01  0.1383E+02
     -4.922  0.6413E+01  0.1389E+02
     -4.914  0.4593E+01  0.1392E+02
     -4.906  0.3300E+01  0.1395E+02
     -4.898  0.3123E+01  0.1397E+02
     -4.890  0.2635E+01  0.1400E+02
     -4.882  0.2467E+01  0.1402E+02
     -4.874  0.3020E+01  0.1404E+02
     -4.866  0.2653E+01  0.1406E+02
     -4.858  0.9995E+00  0.1407E+02
     -4.850  0.2150E+00  0.1407E+02
     -4.842  0.5901E+00  0.1408E+02
     -4.834  0.1750E+01  0.1409E+02
     -4.826  0.2573E+01  0.1411E+02
     -4.818  0.1768E+01  0.1412E+02
     -4.810  0.1329E+01  0.1413E+02
     -4.802  0.2552E+01  0.1416E+02
     -4.794  0.2697E+01  0.1418E+02
     -4.786  0.1669E+01  0.1419E+02
     -4.778  0.2064E+01  0.1421E+02
     -4.770  0.3993E+01  0.1424E+02
     -4.762  0.5559E+01  0.1428E+02
     -4.754  0.6083E+01  0.1433E+02
     -4.746  0.4727E+01  0.1437E+02
     -4.738  0.2110E+01  0.1439E+02
     -4.730  0.1827E+01  0.1440E+02
     -4.722  0.3387E+01  0.1443E+02
     -4.714  0.4443E+01  0.1446E+02
     -4.706  0.4365E+01  0.1450E+02
     -4.698  0.3448E+01  0.1453E+02
     -4.690  0.2485E+01  0.1455E+02
     -4.682  0.1906E+01  0.1456E+02
     -4.674  0.1549E+01  0.1458E+02
     -4.666  0.1717E+01  0.1459E+02
     -4.658  0.2620E+01  0.1461E+02
     -4.650  0.3425E+01  0.1464E+02
     -4.641  0.3228E+01  0.1466E+02
     -4.633  0.2969E+01  0.1469E+02
     -4.625  0.3587E+01  0.1472E+02
     -4.617  0.4390E+01  0.1475E+02
     -4.609  0.4671E+01  0.1479E+02
     -4.601  0.4659E+01  0.1483E+02
     -4.593  0.4003E+01  0.1486E+02
     -4.585  0.2928E+01  0.1488E+02
     -4.577  0.2628E+01  0.1490E+02
     -4.569  0.3101E+01  0.1493E+02
     -4.561  0.3615E+01  0.1496E+02
     -4.553  0.3628E+01  0.1499E+02
     -4.545  0.3362E+01  0.1501E+02
     -4.537  0.3227E+01  0.1504E+02
     -4.529  0.3224E+01  0.1506E+02
     -4.521  0.3548E+01  0.1509E+02
     -4.513  0.3313E+01  0.1512E+02
     -4.505  0.2368E+01  0.1514E+02
     -4.497  0.2052E+01  0.1515E+02
     -4.489  0.3403E+01  0.1518E+02
     -4.481  0.3522E+01  0.1521E+02
     -4.473  0.2788E+01  0.1523E+02
     -4.465  0.2820E+01  0.1526E+02
     -4.457  0.3156E+01  0.1528E+02
     -4.449  0.4226E+01  0.1531E+02
     -4.441  0.4355E+01  0.1535E+02
     -4.433  0.4428E+01  0.1539E+02
     -4.425  0.4557E+01  0.1542E+02
     -4.417  0.4342E+01  0.1546E+02
     -4.409  0.4700E+01  0.1549E+02
     -4.401  0.4338E+01  0.1553E+02
     -4.393  0.3614E+01  0.1556E+02
     -4.385  0.2276E+01  0.1558E+02
     -4.377  0.1169E+01  0.1559E+02
     -4.369  0.2040E+01  0.1560E+02
     -4.361  0.3391E+01  0.1563E+02
     -4.353  0.3165E+01  0.1565E+02
     -4.345  0.1741E+01  0.1567E+02
     -4.337  0.1799E+01  0.1568E+02
     -4.329  0.3209E+01  0.1571E+02
     -4.320  0.3368E+01  0.1574E+02
     -4.312  0.3211E+01  0.1576E+02
     -4.304  0.3666E+01  0.1579E+02
     -4.296  0.3224E+01  0.1582E+02
     -4.288  0.2701E+01  0.1584E+02
     -4.280  0.2434E+01  0.1586E+02
     -4.272  0.2180E+01  0.1588E+02
     -4.264  0.2267E+01  0.1589E+02
     -4.256  0.2406E+01  0.1591E+02
     -4.248  0.2353E+01  0.1593E+02
     -4.240  0.2651E+01  0.1595E+02
     -4.232  0.3620E+01  0.1598E+02
     -4.224  0.3744E+01  0.1601E+02
     -4.216  0.3206E+01  0.1604E+02
     -4.208  0.2559E+01  0.1606E+02
     -4.200  0.2915E+01  0.1608E+02
     -4.192  0.4242E+01  0.1612E+02
     -4.184  0.4715E+01  0.1615E+02
     -4.176  0.3753E+01  0.1618E+02
     -4.168  0.2696E+01  0.1621E+02
     -4.160  0.2047E+01  0.1622E+02
     -4.152  0.2451E+01  0.1624E+02
     -4.144  0.2902E+01  0.1627E+02
     -4.136  0.2840E+01  0.1629E+02
     -4.128  0.3011E+01  0.1631E+02
     -4.120  0.2639E+01  0.1633E+02
     -4.112  0.2029E+01  0.1635E+02
     -4.104  0.2905E+01  0.1637E+02
     -4.096  0.4163E+01  0.1641E+02
     -4.088  0.3293E+01  0.1643E+02
     -4.080  0.2190E+01  0.1645E+02
     -4.072  0.3129E+01  0.1648E+02
     -4.064  0.4113E+01  0.1651E+02
     -4.056  0.2880E+01  0.1653E+02
     -4.048  0.1783E+01  0.1655E+02
     -4.040  0.1824E+01  0.1656E+02
     -4.032  0.2392E+01  0.1658E+02
     -4.024  0.3121E+01  0.1660E+02
     -4.016  0.3186E+01  0.1663E+02
     -4.008  0.2521E+01  0.1665E+02
     -4.000  0.1678E+01  0.1666E+02
     -3.991  0.1722E+01  0.1668E+02
     -3.983  0.2836E+01  0.1670E+02
     -3.975  0.4292E+01  0.1673E+02
     -3.967  0.5743E+01  0.1678E+02
     -3.959  0.5503E+01  0.1683E+02
     -3.951  0.3728E+01  0.1686E+02
     -3.943  0.2232E+01  0.1687E+02
     -3.935  0.1772E+01  0.1689E+02
     -3.927  0.1778E+01  0.1690E+02
     -3.919  0.1743E+01  0.1692E+02
     -3.911  0.2497E+01  0.1694E+02
     -3.903  0.3061E+01  0.1696E+02
     -3.895  0.3534E+01  0.1699E+02
     -3.887  0.3058E+01  0.1701E+02
     -3.879  0.1965E+01  0.1703E+02
     -3.871  0.2351E+01  0.1705E+02
     -3.863  0.2496E+01  0.1707E+02
     -3.855  0.1773E+01  0.1708E+02
     -3.847  0.1593E+01  0.1709E+02
     -3.839  0.2125E+01  0.1711E+02
     -3.831  0.3112E+01  0.1714E+02
     -3.823  0.4320E+01  0.1717E+02
     -3.815  0.5082E+01  0.1721E+02
     -3.807  0.6581E+01  0.1726E+02
     -3.799  0.6574E+01  0.1732E+02
     -3.791  0.4454E+01  0.1735E+02
     -3.783  0.2970E+01  0.1738E+02
     -3.775  0.2813E+01  0.1740E+02
     -3.767  0.3250E+01  0.1743E+02
     -3.759  0.3254E+01  0.1745E+02
     -3.751  0.2495E+01  0.1747E+02
     -3.743  0.1546E+01  0.1748E+02
     -3.735  0.1433E+01  0.1750E+02
     -3.727  0.1831E+01  0.1751E+02
     -3.719  0.1603E+01  0.1752E+02
     -3.711  0.1612E+01  0.1754E+02
     -3.703  0.2228E+01  0.1755E+02
     -3.695  0.2518E+01  0.1757E+02
     -3.687  0.2110E+01  0.1759E+02
     -3.679  0.1933E+01  0.1761E+02
     -3.671  0.2540E+01  0.1763E+02
     -3.662  0.2890E+01  0.1765E+02
     -3.654  0.3116E+01  0.1768E+02
     -3.646  0.3063E+01  0.1770E+02
     -3.638  0.3067E+01  0.1772E+02
     -3.630  0.3108E+01  0.1775E+02
     -3.622  0.3163E+01  0.1778E+02
     -3.614  0.2979E+01  0.1780E+02
     -3.606  0.2743E+01  0.1782E+02
     -3.598  0.2904E+01  0.1784E+02
     -3.590  0.3213E+01  0.1787E+02
     -3.582  0.3481E+01  0.1790E+02
     -3.574  0.3329E+01  0.1792E+02
     -3.566  0.3435E+01  0.1795E+02
     -3.558  0.3523E+01  0.1798E+02
     -3.550  0.2389E+01  0.1800E+02
     -3.542  0.1962E+01  0.1802E+02
     -3.534  0.2674E+01  0.1804E+02
     -3.526  0.2994E+01  0.1806E+02
     -3.518  0.3513E+01  0.1809E+02
     -3.510  0.4198E+01  0.1812E+02
     -3.502  0.3575E+01  0.1815E+02
     -3.494  0.2194E+01  0.1817E+02
     -3.486  0.1392E+01  0.1818E+02
     -3.478  0.2066E+01  0.1820E+02
     -3.470  0.3443E+01  0.1822E+02
     -3.462  0.3162E+01  0.1825E+02
     -3.454  0.2323E+01  0.1827E+02
     -3.446  0.2165E+01  0.1829E+02
     -3.438  0.1591E+01  0.1830E+02
     -3.430  0.1313E+01  0.1831E+02
     -3.422  0.2004E+01  0.1833E+02
     -3.414  0.2644E+01  0.1835E+02
     -3.406  0.2091E+01  0.1836E+02
     -3.398  0.2145E+01  0.1838E+02
     -3.390  0.2824E+01  0.1840E+02
     -3.382  0.2652E+01  0.1842E+02
     -3.374  0.3342E+01  0.1845E+02
     -3.366  0.4131E+01  0.1848E+02
     -3.358  0.3244E+01  0.1851E+02
     -3.350  0.2712E+01  0.1853E+02
     -3.341  0.3054E+01  0.1856E+02
     -3.333  0.3408E+01  0.1858E+02
     -3.325  0.2931E+01  0.1861E+02
     -3.317  0.2445E+01  0.1863E+02
     -3.309  0.2865E+01  0.1865E+02
     -3.301  0.2795E+01  0.1867E+02
     -3.293  0.2176E+01  0.1869E+02
     -3.285  0.2453E+01  0.1871E+02
     -3.277  0.3318E+01  0.1874E+02
     -3.269  0.3562E+01  0.1876E+02
     -3.261  0.3140E+01  0.1879E+02
     -3.253  0.2757E+01  0.1881E+02
     -3.245  0.3224E+01  0.1884E+02
     -3.237  0.2934E+01  0.1886E+02
     -3.229  0.2090E+01  0.1888E+02
     -3.221  0.3153E+01  0.1890E+02
     -3.213  0.5234E+01  0.1895E+02
     -3.205  0.5051E+01  0.1899E+02
     -3.197  0.3868E+01  0.1902E+02
     -3.189  0.2473E+01  0.1904E+02
     -3.181  0.1237E+01  0.1905E+02
     -3.173  0.1321E+01  0.1906E+02
     -3.165  0.2452E+01  0.1908E+02
     -3.157  0.2572E+01  0.1910E+02
     -3.149  0.1948E+01  0.1911E+02
     -3.141  0.1562E+01  0.1913E+02
     -3.133  0.1069E+01  0.1913E+02
     -3.125  0.7331E+00  0.1914E+02
     -3.117  0.1155E+01  0.1915E+02
     -3.109  0.2019E+01  0.1917E+02
     -3.101  0.2589E+01  0.1919E+02
     -3.093  0.2192E+01  0.1920E+02
     -3.085  0.2114E+01  0.1922E+02
     -3.077  0.2625E+01  0.1924E+02
     -3.069  0.2605E+01  0.1926E+02
     -3.061  0.3066E+01  0.1929E+02
     -3.053  0.3960E+01  0.1932E+02
     -3.045  0.3920E+01  0.1935E+02
     -3.037  0.3879E+01  0.1938E+02
     -3.029  0.3620E+01  0.1941E+02
     -3.021  0.2985E+01  0.1944E+02
     -3.012  0.2684E+01  0.1946E+02
     -3.004  0.3271E+01  0.1948E+02
     -2.996  0.4110E+01  0.1952E+02
     -2.988  0.3541E+01  0.1954E+02
     -2.980  0.3389E+01  0.1957E+02
     -2.972  0.4005E+01  0.1960E+02
     -2.964  0.3340E+01  0.1963E+02
     -2.956  0.2654E+01  0.1965E+02
     -2.948  0.2976E+01  0.1968E+02
     -2.940  0.2455E+01  0.1970E+02
     -2.932  0.1892E+01  0.1971E+02
     -2.924  0.1421E+01  0.1972E+02
     -2.916  0.1856E+01  0.1974E+02
     -2.908  0.2988E+01  0.1976E+02
     -2.900  0.3300E+01  0.1979E+02
     -2.892  0.2694E+01  0.1981E+02
     -2.884  0.2483E+01  0.1983E+02
     -2.876  0.3407E+01  0.1986E+02
     -2.868  0.3564E+01  0.1988E+02
     -2.860  0.3237E+01  0.1991E+02
     -2.852  0.2952E+01  0.1993E+02
     -2.844  0.2480E+01  0.1995E+02
     -2.836  0.3100E+01  0.1998E+02
     -2.828  0.3987E+01  0.2001E+02
     -2.820  0.3713E+01  0.2004E+02
     -2.812  0.2866E+01  0.2006E+02
     -2.804  0.2711E+01  0.2009E+02
     -2.796  0.2574E+01  0.2011E+02
     -2.788  0.2358E+01  0.2013E+02
     -2.780  0.2523E+01  0.2015E+02
     -2.772  0.2367E+01  0.2016E+02
     -2.764  0.1729E+01  0.2018E+02
     -2.756  0.8249E+00  0.2019E+02
     -2.748  0.9319E+00  0.2019E+02
     -2.740  0.1741E+01  0.2021E+02
     -2.732  0.2268E+01  0.2022E+02
     -2.724  0.2041E+01  0.2024E+02
     -2.716  0.1722E+01  0.2026E+02
     -2.708  0.2808E+01  0.2028E+02
     -2.700  0.4388E+01  0.2031E+02
     -2.692  0.3632E+01  0.2034E+02
     -2.683  0.1971E+01  0.2036E+02
     -2.675  0.1242E+01  0.2037E+02
     -2.667  0.2123E+01  0.2038E+02
     -2.659  0.2796E+01  0.2041E+02
     -2.651  0.2778E+01  0.2043E+02
     -2.643  0.2681E+01  0.2045E+02
     -2.635  0.2887E+01  0.2047E+02
     -2.627  0.2609E+01  0.2050E+02
     -2.619  0.2555E+01  0.2052E+02
     -2.611  0.2170E+01  0.2053E+02
     -2.603  0.1123E+01  0.2054E+02
     -2.595  0.1364E+01  0.2055E+02
     -2.587  0.2426E+01  0.2057E+02
     -2.579  0.3722E+01  0.2060E+02
     -2.571  0.3786E+01  0.2063E+02
     -2.563  0.2220E+01  0.2065E+02
     -2.555  0.1992E+01  0.2067E+02
     -2.547  0.2619E+01  0.2069E+02
     -2.539  0.2781E+01  0.2071E+02
     -2.531  0.3870E+01  0.2074E+02
     -2.523  0.4542E+01  0.2078E+02
     -2.515  0.3691E+01  0.2081E+02
     -2.507  0.3265E+01  0.2083E+02
     -2.499  0.3734E+01  0.2086E+02
     -2.491  0.4346E+01  0.2090E+02
     -2.483  0.3075E+01  0.2092E+02
     -2.475  0.2027E+01  0.2094E+02
     -2.467  0.2448E+01  0.2096E+02
     -2.459  0.2999E+01  0.2098E+02
     -2.451  0.3749E+01  0.2101E+02
     -2.443  0.4499E+01  0.2105E+02
     -2.435  0.3813E+01  0.2108E+02
     -2.427  0.2441E+01  0.2110E+02
     -2.419  0.2311E+01  0.2112E+02
     -2.411  0.2070E+01  0.2113E+02
     -2.403  0.2003E+01  0.2115E+02
     -2.395  0.2398E+01  0.2117E+02
     -2.387  0.3320E+01  0.2120E+02
     -2.379  0.4648E+01  0.2123E+02
     -2.371  0.4286E+01  0.2127E+02
     -2.362  0.2966E+01  0.2129E+02
     -2.354  0.2488E+01  0.2131E+02
     -2.346  0.2262E+01  0.2133E+02
     -2.338  0.2555E+01  0.2135E+02
     -2.330  0.2368E+01  0.2137E+02
     -2.322  0.1893E+01  0.2138E+02
     -2.314  0.2222E+01  0.2140E+02
     -2.306  0.3778E+01  0.2143E+02
     -2.298  0.4221E+01  0.2147E+02
     -2.290  0.2977E+01  0.2149E+02
     -2.282  0.2612E+01  0.2151E+02
     -2.274  0.3213E+01  0.2154E+02
     -2.266  0.3625E+01  0.2157E+02
     -2.258  0.4084E+01  0.2160E+02
     -2.250  0.4505E+01  0.2164E+02
     -2.242  0.5277E+01  0.2168E+02
     -2.234  0.5992E+01  0.2173E+02
     -2.226  0.5345E+01  0.2177E+02
     -2.218  0.5057E+01  0.2181E+02
     -2.210  0.5585E+01  0.2185E+02
     -2.202  0.5787E+01  0.2190E+02
     -2.194  0.4709E+01  0.2194E+02
     -2.186  0.4368E+01  0.2197E+02
     -2.178  0.3194E+01  0.2200E+02
     -2.170  0.1728E+01  0.2201E+02
     -2.162  0.1532E+01  0.2202E+02
     -2.154  0.1233E+01  0.2203E+02
     -2.146  0.1383E+01  0.2205E+02
     -2.138  0.2128E+01  0.2206E+02
     -2.130  0.3085E+01  0.2209E+02
     -2.122  0.4852E+01  0.2213E+02
     -2.114  0.7070E+01  0.2218E+02
     -2.106  0.7720E+01  0.2225E+02
     -2.098  0.5076E+01  0.2229E+02
     -2.090  0.2974E+01  0.2231E+02
     -2.082  0.2353E+01  0.2233E+02
     -2.074  0.2102E+01  0.2235E+02
     -2.066  0.2659E+01  0.2237E+02
     -2.058  0.3632E+01  0.2240E+02
     -2.050  0.3904E+01  0.2243E+02
     -2.042  0.2818E+01  0.2245E+02
     -2.033  0.1803E+01  0.2246E+02
     -2.025  0.2457E+01  0.2248E+02
     -2.017  0.4032E+01  0.2252E+02
     -2.009  0.5162E+01  0.2256E+02
     -2.001  0.5007E+01  0.2260E+02
     -1.993  0.4094E+01  0.2263E+02
     -1.985  0.3023E+01  0.2266E+02
     -1.977  0.2115E+01  0.2267E+02
     -1.969  0.2528E+01  0.2269E+02
     -1.961  0.3147E+01  0.2272E+02
     -1.953  0.2597E+01  0.2274E+02
     -1.945  0.2799E+01  0.2276E+02
     -1.937  0.3810E+01  0.2279E+02
     -1.929  0.3104E+01  0.2282E+02
     -1.921  0.2998E+01  0.2284E+02
     -1.913  0.4792E+01  0.2288E+02
     -1.905  0.5633E+01  0.2292E+02
     -1.897  0.6489E+01  0.2298E+02
     -1.889  0.7179E+01  0.2303E+02
     -1.881  0.6396E+01  0.2309E+02
     -1.873  0.6014E+01  0.2313E+02
     -1.865  0.6260E+01  0.2318E+02
     -1.857  0.5931E+01  0.2323E+02
     -1.849  0.6220E+01  0.2328E+02
     -1.841  0.7600E+01  0.2334E+02
     -1.833  0.6876E+01  0.2340E+02
     -1.825  0.5534E+01  0.2344E+02
     -1.817  0.4966E+01  0.2348E+02
     -1.809  0.4073E+01  0.2351E+02
     -1.801  0.3298E+01  0.2354E+02
     -1.793  0.2832E+01  0.2356E+02
     -1.785  0.2349E+01  0.2358E+02
     -1.777  0.2852E+01  0.2361E+02
     -1.769  0.4102E+01  0.2364E+02
     -1.761  0.5607E+01  0.2368E+02
     -1.753  0.6736E+01  0.2374E+02
     -1.745  0.8716E+01  0.2381E+02
     -1.737  0.9955E+01  0.2389E+02
     -1.729  0.8485E+01  0.2396E+02
     -1.721  0.7025E+01  0.2401E+02
     -1.713  0.7075E+01  0.2407E+02
     -1.704  0.6632E+01  0.2412E+02
     -1.696  0.5225E+01  0.2416E+02
     -1.688  0.4383E+01  0.2420E+02
     -1.680  0.4643E+01  0.2424E+02
     -1.672  0.4414E+01  0.2427E+02
     -1.664  0.4216E+01  0.2431E+02
     -1.656  0.4282E+01  0.2434E+02
     -1.648  0.4284E+01  0.2437E+02
     -1.640  0.4951E+01  0.2441E+02
     -1.632  0.5410E+01  0.2446E+02
     -1.624  0.6651E+01  0.2451E+02
     -1.616  0.8199E+01  0.2458E+02
     -1.608  0.8305E+01  0.2464E+02
     -1.600  0.7369E+01  0.2470E+02
     -1.592  0.6330E+01  0.2475E+02
     -1.584  0.6773E+01  0.2481E+02
     -1.576  0.6689E+01  0.2486E+02
     -1.568  0.6666E+01  0.2491E+02
     -1.560  0.7978E+01  0.2498E+02
     -1.552  0.8247E+01  0.2504E+02
     -1.544  0.6141E+01  0.2509E+02
     -1.536  0.3249E+01  0.2512E+02
     -1.528  0.2961E+01  0.2514E+02
     -1.520  0.5198E+01  0.2519E+02
     -1.512  0.6118E+01  0.2523E+02
     -1.504  0.5985E+01  0.2528E+02
     -1.496  0.6982E+01  0.2534E+02
     -1.488  0.7738E+01  0.2540E+02
     -1.480  0.7570E+01  0.2546E+02
     -1.472  0.7196E+01  0.2552E+02
     -1.464  0.7323E+01  0.2558E+02
     -1.456  0.7053E+01  0.2563E+02
     -1.448  0.6793E+01  0.2569E+02
     -1.440  0.6905E+01  0.2574E+02
     -1.432  0.6514E+01  0.2580E+02
     -1.424  0.5463E+01  0.2584E+02
     -1.416  0.4898E+01  0.2588E+02
     -1.408  0.3887E+01  0.2591E+02
     -1.400  0.2916E+01  0.2593E+02
     -1.392  0.3876E+01  0.2597E+02
     -1.383  0.6585E+01  0.2602E+02
     -1.375  0.8416E+01  0.2609E+02
     -1.367  0.7940E+01  0.2615E+02
     -1.359  0.6047E+01  0.2620E+02
     -1.351  0.5765E+01  0.2624E+02
     -1.343  0.6128E+01  0.2629E+02
     -1.335  0.5664E+01  0.2634E+02
     -1.327  0.4642E+01  0.2638E+02
     -1.319  0.3790E+01  0.2641E+02
     -1.311  0.3263E+01  0.2643E+02
     -1.303  0.4353E+01  0.2647E+02
     -1.295  0.6159E+01  0.2652E+02
     -1.287  0.6313E+01  0.2657E+02
     -1.279  0.5130E+01  0.2661E+02
     -1.271  0.3960E+01  0.2664E+02
     -1.263  0.3939E+01  0.2667E+02
     -1.255  0.4377E+01  0.2671E+02
     -1.247  0.3696E+01  0.2674E+02
     -1.239  0.3266E+01  0.2676E+02
     -1.231  0.3315E+01  0.2679E+02
     -1.223  0.3275E+01  0.2682E+02
     -1.215  0.4069E+01  0.2685E+02
     -1.207  0.3967E+01  0.2688E+02
     -1.199  0.3743E+01  0.2691E+02
     -1.191  0.4628E+01  0.2695E+02
     -1.183  0.5546E+01  0.2699E+02
     -1.175  0.5765E+01  0.2704E+02
     -1.167  0.6331E+01  0.2709E+02
     -1.159  0.8318E+01  0.2716E+02
     -1.151  0.8855E+01  0.2723E+02
     -1.143  0.8696E+01  0.2730E+02
     -1.135  0.9566E+01  0.2737E+02
     -1.127  0.9618E+01  0.2745E+02
     -1.119  0.7887E+01  0.2751E+02
     -1.111  0.6884E+01  0.2757E+02
     -1.103  0.7648E+01  0.2763E+02
     -1.095  0.7321E+01  0.2769E+02
     -1.087  0.4946E+01  0.2773E+02
     -1.079  0.3763E+01  0.2776E+02
     -1.071  0.4121E+01  0.2779E+02
     -1.063  0.4188E+01  0.2783E+02
     -1.054  0.3738E+01  0.2786E+02
     -1.046  0.2789E+01  0.2788E+02
     -1.038  0.2619E+01  0.2790E+02
     -1.030  0.3529E+01  0.2793E+02
     -1.022  0.4684E+01  0.2797E+02
     -1.014  0.3406E+01  0.2799E+02
     -1.006  0.1641E+01  0.2801E+02
     -0.998  0.2309E+01  0.2802E+02
     -0.990  0.3002E+01  0.2805E+02
     -0.982  0.2470E+01  0.2807E+02
     -0.974  0.2523E+01  0.2809E+02
     -0.966  0.2411E+01  0.2811E+02
     -0.958  0.1897E+01  0.2812E+02
     -0.950  0.1568E+01  0.2814E+02
     -0.942  0.1314E+01  0.2815E+02
     -0.934  0.1751E+01  0.2816E+02
     -0.926  0.3127E+01  0.2819E+02
     -0.918  0.3961E+01  0.2822E+02
     -0.910  0.3332E+01  0.2824E+02
     -0.902  0.2679E+01  0.2827E+02
     -0.894  0.2104E+01  0.2828E+02
     -0.886  0.2066E+01  0.2830E+02
     -0.878  0.1728E+01  0.2831E+02
     -0.870  0.1298E+01  0.2832E+02
     -0.862  0.2453E+01  0.2834E+02
     -0.854  0.3720E+01  0.2837E+02
     -0.846  0.4164E+01  0.2841E+02
     -0.838  0.3363E+01  0.2843E+02
     -0.830  0.3183E+01  0.2846E+02
     -0.822  0.3742E+01  0.2849E+02
     -0.814  0.3096E+01  0.2851E+02
     -0.806  0.1637E+01  0.2853E+02
     -0.798  0.1006E+01  0.2854E+02
     -0.790  0.1337E+01  0.2855E+02
     -0.782  0.2258E+01  0.2856E+02
     -0.774  0.2246E+01  0.2858E+02
     -0.766  0.2044E+01  0.2860E+02
     -0.758  0.2966E+01  0.2862E+02
     -0.750  0.4017E+01  0.2865E+02
     -0.742  0.5159E+01  0.2870E+02
     -0.734  0.6296E+01  0.2875E+02
     -0.725  0.5540E+01  0.2879E+02
     -0.717  0.3697E+01  0.2882E+02
     -0.709  0.2497E+01  0.2884E+02
     -0.701  0.2100E+01  0.2886E+02
     -0.693  0.2448E+01  0.2888E+02
     -0.685  0.3935E+01  0.2891E+02
     -0.677  0.5152E+01  0.2895E+02
     -0.669  0.4354E+01  0.2898E+02
     -0.661  0.4374E+01  0.2902E+02
     -0.653  0.4544E+01  0.2906E+02
     -0.645  0.3543E+01  0.2908E+02
     -0.637  0.4328E+01  0.2912E+02
     -0.629  0.4563E+01  0.2916E+02
     -0.621  0.3551E+01  0.2918E+02
     -0.613  0.3072E+01  0.2921E+02
     -0.605  0.4417E+01  0.2924E+02
     -0.597  0.6699E+01  0.2930E+02
     -0.589  0.7936E+01  0.2936E+02
     -0.581  0.7552E+01  0.2942E+02
     -0.573  0.5881E+01  0.2947E+02
     -0.565  0.4181E+01  0.2950E+02
     -0.557  0.4012E+01  0.2954E+02
     -0.549  0.4894E+01  0.2957E+02
     -0.541  0.5640E+01  0.2962E+02
     -0.533  0.6130E+01  0.2967E+02
     -0.525  0.6024E+01  0.2972E+02
     -0.517  0.5357E+01  0.2976E+02
     -0.509  0.6621E+01  0.2981E+02
     -0.501  0.8184E+01  0.2988E+02
     -0.493  0.8590E+01  0.2995E+02
     -0.485  0.9264E+01  0.3002E+02
     -0.477  0.8619E+01  0.3009E+02
     -0.469  0.7586E+01  0.3015E+02
     -0.461  0.6123E+01  0.3020E+02
     -0.453  0.4342E+01  0.3024E+02
     -0.445  0.3809E+01  0.3027E+02
     -0.437  0.4880E+01  0.3031E+02
     -0.429  0.6067E+01  0.3036E+02
     -0.421  0.6534E+01  0.3041E+02
     -0.413  0.6245E+01  0.3046E+02
     -0.404  0.4517E+01  0.3049E+02
     -0.396  0.3978E+01  0.3053E+02
     -0.388  0.4594E+01  0.3056E+02
     -0.380  0.4757E+01  0.3060E+02
     -0.372  0.4779E+01  0.3064E+02
     -0.364  0.5402E+01  0.3068E+02
     -0.356  0.6310E+01  0.3073E+02
     -0.348  0.4868E+01  0.3077E+02
     -0.340  0.3631E+01  0.3080E+02
     -0.332  0.3647E+01  0.3083E+02
     -0.324  0.4687E+01  0.3087E+02
     -0.316  0.7287E+01  0.3093E+02
     -0.308  0.9649E+01  0.3100E+02
     -0.300  0.9483E+01  0.3108E+02
     -0.292  0.6179E+01  0.3113E+02
     -0.284  0.4720E+01  0.3117E+02
     -0.276  0.6182E+01  0.3122E+02
     -0.268  0.6933E+01  0.3127E+02
     -0.260  0.5794E+01  0.3132E+02
     -0.252  0.4549E+01  0.3136E+02
     -0.244  0.5017E+01  0.3140E+02
     -0.236  0.7220E+01  0.3145E+02
     -0.228  0.8849E+01  0.3153E+02
     -0.220  0.9111E+01  0.3160E+02
     -0.212  0.9617E+01  0.3168E+02
     -0.204  0.8206E+01  0.3174E+02
     -0.196  0.5301E+01  0.3178E+02
     -0.188  0.4219E+01  0.3182E+02
     -0.180  0.4775E+01  0.3186E+02
     -0.172  0.4346E+01  0.3189E+02
     -0.164  0.2962E+01  0.3191E+02
     -0.156  0.3964E+01  0.3195E+02
     -0.148  0.7181E+01  0.3200E+02
     -0.140  0.9539E+01  0.3208E+02
     -0.132  0.8639E+01  0.3215E+02
     -0.124  0.6403E+01  0.3220E+02
     -0.116  0.6581E+01  0.3225E+02
     -0.108  0.8199E+01  0.3232E+02
     -0.100  0.8931E+01  0.3239E+02
     -0.092  0.8710E+01  0.3246E+02
     -0.084  0.8565E+01  0.3253E+02
     -0.075  0.7646E+01  0.3259E+02
     -0.067  0.6352E+01  0.3264E+02
     -0.059  0.5184E+01  0.3268E+02
     -0.051  0.3793E+01  0.3271E+02
     -0.043  0.4262E+01  0.3275E+02
     -0.035  0.4870E+01  0.3279E+02
     -0.027  0.6338E+01  0.3284E+02
     -0.019  0.8411E+01  0.3291E+02
     -0.011  0.9900E+01  0.3299E+02
     -0.003  0.1008E+02  0.3307E+02
      0.005  0.7674E+01  0.3313E+02
      0.013  0.5199E+01  0.3317E+02
      0.021  0.3762E+01  0.3320E+02
      0.029  0.3732E+01  0.3323E+02
      0.037  0.5947E+01  0.3328E+02
      0.045  0.7680E+01  0.3334E+02
      0.053  0.5915E+01  0.3339E+02
      0.061  0.4762E+01  0.3343E+02
      0.069  0.5073E+01  0.3347E+02
      0.077  0.5868E+01  0.3351E+02
      0.085  0.7349E+01  0.3357E+02
      0.093  0.7217E+01  0.3363E+02
      0.101  0.6226E+01  0.3368E+02
      0.109  0.6266E+01  0.3373E+02
      0.117  0.7427E+01  0.3379E+02
      0.125  0.9164E+01  0.3386E+02
      0.133  0.1076E+02  0.3395E+02
      0.141  0.1087E+02  0.3404E+02
      0.149  0.9311E+01  0.3411E+02
      0.157  0.8997E+01  0.3418E+02
      0.165  0.1099E+02  0.3427E+02
      0.173  0.1230E+02  0.3437E+02
      0.181  0.1298E+02  0.3447E+02
      0.189  0.1317E+02  0.3458E+02
      0.197  0.1214E+02  0.3468E+02
      0.205  0.9737E+01  0.3476E+02
      0.213  0.9626E+01  0.3483E+02
      0.221  0.1019E+02  0.3491E+02
      0.229  0.7264E+01  0.3497E+02
      0.237  0.5699E+01  0.3502E+02
      0.245  0.6709E+01  0.3507E+02
      0.254  0.7280E+01  0.3513E+02
      0.262  0.6303E+01  0.3518E+02
      0.270  0.6730E+01  0.3524E+02
      0.278  0.8624E+01  0.3530E+02
      0.286  0.1134E+02  0.3540E+02
      0.294  0.1327E+02  0.3550E+02
      0.302  0.1061E+02  0.3559E+02
      0.310  0.7134E+01  0.3564E+02
      0.318  0.6406E+01  0.3570E+02
      0.326  0.6666E+01  0.3575E+02
      0.334  0.8529E+01  0.3582E+02
      0.342  0.9970E+01  0.3590E+02
      0.350  0.8549E+01  0.3597E+02
      0.358  0.6269E+01  0.3602E+02
      0.366  0.5675E+01  0.3606E+02
      0.374  0.6923E+01  0.3612E+02
      0.382  0.7407E+01  0.3618E+02
      0.390  0.6941E+01  0.3623E+02
      0.398  0.7861E+01  0.3630E+02
      0.406  0.8725E+01  0.3637E+02
      0.414  0.8707E+01  0.3644E+02
      0.422  0.1065E+02  0.3652E+02
      0.430  0.1169E+02  0.3662E+02
      0.438  0.8496E+01  0.3668E+02
      0.446  0.6264E+01  0.3673E+02
      0.454  0.6925E+01  0.3679E+02
      0.462  0.6029E+01  0.3684E+02
      0.470  0.3895E+01  0.3687E+02
      0.478  0.4050E+01  0.3690E+02
      0.486  0.4282E+01  0.3694E+02
      0.494  0.3774E+01  0.3697E+02
      0.502  0.2677E+01  0.3699E+02
      0.510  0.2483E+01  0.3701E+02
      0.518  0.4327E+01  0.3704E+02
      0.526  0.5878E+01  0.3709E+02
      0.534  0.5230E+01  0.3713E+02
      0.542  0.4014E+01  0.3716E+02
      0.550  0.4582E+01  0.3720E+02
      0.558  0.4467E+01  0.3724E+02
      0.566  0.3421E+01  0.3726E+02
      0.574  0.3017E+01  0.3729E+02
      0.583  0.2400E+01  0.3731E+02
      0.591  0.2410E+01  0.3733E+02
      0.599  0.3046E+01  0.3735E+02
      0.607  0.3330E+01  0.3738E+02
      0.615  0.3254E+01  0.3740E+02
      0.623  0.3336E+01  0.3743E+02
      0.631  0.3983E+01  0.3746E+02
      0.639  0.3612E+01  0.3749E+02
      0.647  0.2979E+01  0.3752E+02
      0.655  0.3135E+01  0.3754E+02
      0.663  0.3044E+01  0.3757E+02
      0.671  0.3520E+01  0.3759E+02
      0.679  0.4380E+01  0.3763E+02
      0.687  0.3453E+01  0.3766E+02
      0.695  0.3125E+01  0.3768E+02
      0.703  0.3126E+01  0.3771E+02
      0.711  0.2196E+01  0.3772E+02
      0.719  0.2739E+01  0.3775E+02
      0.727  0.4228E+01  0.3778E+02
      0.735  0.4367E+01  0.3781E+02
      0.743  0.3782E+01  0.3785E+02
      0.751  0.4247E+01  0.3788E+02
      0.759  0.5041E+01  0.3792E+02
      0.767  0.3676E+01  0.3795E+02
      0.775  0.2315E+01  0.3797E+02
      0.783  0.2856E+01  0.3799E+02
      0.791  0.4215E+01  0.3802E+02
      0.799  0.4579E+01  0.3806E+02
      0.807  0.4234E+01  0.3810E+02
      0.815  0.3423E+01  0.3812E+02
      0.823  0.2242E+01  0.3814E+02
      0.831  0.2633E+01  0.3816E+02
      0.839  0.4133E+01  0.3820E+02
      0.847  0.4788E+01  0.3823E+02
      0.855  0.3794E+01  0.3826E+02
      0.863  0.3248E+01  0.3829E+02
      0.871  0.2905E+01  0.3831E+02
      0.879  0.3094E+01  0.3834E+02
      0.887  0.3639E+01  0.3837E+02
      0.895  0.4249E+01  0.3840E+02
      0.904  0.3848E+01  0.3843E+02
      0.912  0.3641E+01  0.3846E+02
      0.920  0.4798E+01  0.3850E+02
      0.928  0.4428E+01  0.3854E+02
      0.936  0.2778E+01  0.3856E+02
      0.944  0.2569E+01  0.3858E+02
      0.952  0.3309E+01  0.3861E+02
      0.960  0.2845E+01  0.3863E+02
      0.968  0.2726E+01  0.3865E+02
      0.976  0.3259E+01  0.3868E+02
      0.984  0.3656E+01  0.3871E+02
      0.992  0.4512E+01  0.3874E+02
      1.000  0.4908E+01  0.3878E+02
      1.008  0.3124E+01  0.3881E+02
      1.016  0.1418E+01  0.3882E+02
      1.024  0.1458E+01  0.3883E+02
      1.032  0.2293E+01  0.3885E+02
      1.040  0.3988E+01  0.3888E+02
      1.048  0.4708E+01  0.3892E+02
      1.056  0.3457E+01  0.3894E+02
      1.064  0.2469E+01  0.3896E+02
      1.072  0.1935E+01  0.3898E+02
      1.080  0.2803E+01  0.3900E+02
      1.088  0.4045E+01  0.3904E+02
      1.096  0.4069E+01  0.3907E+02
      1.104  0.3716E+01  0.3910E+02
      1.112  0.2993E+01  0.3912E+02
      1.120  0.3265E+01  0.3915E+02
      1.128  0.4206E+01  0.3918E+02
      1.136  0.3892E+01  0.3921E+02
      1.144  0.3196E+01  0.3924E+02
      1.152  0.2643E+01  0.3926E+02
      1.160  0.2101E+01  0.3928E+02
      1.168  0.1230E+01  0.3929E+02
      1.176  0.9300E+00  0.3929E+02
      1.184  0.2537E+01  0.3931E+02
      1.192  0.4447E+01  0.3935E+02
      1.200  0.4119E+01  0.3938E+02
      1.208  0.3345E+01  0.3941E+02
      1.216  0.3097E+01  0.3943E+02
      1.224  0.3535E+01  0.3946E+02
      1.233  0.3938E+01  0.3949E+02
      1.241  0.3757E+01  0.3952E+02
      1.249  0.4145E+01  0.3956E+02
      1.257  0.3941E+01  0.3959E+02
      1.265  0.3188E+01  0.3962E+02
      1.273  0.2342E+01  0.3963E+02
      1.281  0.2439E+01  0.3965E+02
      1.289  0.2592E+01  0.3967E+02
      1.297  0.3418E+01  0.3970E+02
      1.305  0.4445E+01  0.3974E+02
      1.313  0.4417E+01  0.3977E+02
      1.321  0.3619E+01  0.3980E+02
      1.329  0.3517E+01  0.3983E+02
      1.337  0.4096E+01  0.3986E+02
      1.345  0.4859E+01  0.3990E+02
      1.353  0.5733E+01  0.3995E+02
      1.361  0.5423E+01  0.3999E+02
      1.369  0.4690E+01  0.4003E+02
      1.377  0.3743E+01  0.4006E+02
      1.385  0.3443E+01  0.4009E+02
      1.393  0.4952E+01  0.4013E+02
      1.401  0.5828E+01  0.4017E+02
      1.409  0.4743E+01  0.4021E+02
      1.417  0.3255E+01  0.4024E+02
      1.425  0.3279E+01  0.4026E+02
      1.433  0.3957E+01  0.4030E+02
      1.441  0.3909E+01  0.4033E+02
      1.449  0.4556E+01  0.4036E+02
      1.457  0.5444E+01  0.4041E+02
      1.465  0.4625E+01  0.4044E+02
      1.473  0.3411E+01  0.4047E+02
      1.481  0.2842E+01  0.4049E+02
      1.489  0.3478E+01  0.4052E+02
      1.497  0.4649E+01  0.4056E+02
      1.505  0.3806E+01  0.4059E+02
      1.513  0.2472E+01  0.4061E+02
      1.521  0.1912E+01  0.4063E+02
      1.529  0.2316E+01  0.4064E+02
      1.537  0.3496E+01  0.4067E+02
      1.545  0.4072E+01  0.4070E+02
      1.553  0.4600E+01  0.4074E+02
      1.562  0.4989E+01  0.4078E+02
      1.570  0.5617E+01  0.4083E+02
      1.578  0.5534E+01  0.4087E+02
      1.586  0.4819E+01  0.4091E+02
      1.594  0.3820E+01  0.4094E+02
      1.602  0.3817E+01  0.4097E+02
      1.610  0.4131E+01  0.4100E+02
      1.618  0.3472E+01  0.4103E+02
      1.626  0.3431E+01  0.4106E+02
      1.634  0.5007E+01  0.4110E+02
      1.642  0.5864E+01  0.4115E+02
      1.650  0.4894E+01  0.4119E+02
      1.658  0.3537E+01  0.4121E+02
      1.666  0.4260E+01  0.4125E+02
      1.674  0.5795E+01  0.4130E+02
      1.682  0.5366E+01  0.4134E+02
      1.690  0.4817E+01  0.4138E+02
      1.698  0.3929E+01  0.4141E+02
      1.706  0.2602E+01  0.4143E+02
      1.714  0.2288E+01  0.4145E+02
      1.722  0.2631E+01  0.4147E+02
      1.730  0.3716E+01  0.4150E+02
      1.738  0.4571E+01  0.4154E+02
      1.746  0.4502E+01  0.4157E+02
      1.754  0.3430E+01  0.4160E+02
      1.762  0.2266E+01  0.4162E+02
      1.770  0.1792E+01  0.4163E+02
      1.778  0.1855E+01  0.4165E+02
      1.786  0.2048E+01  0.4166E+02
      1.794  0.2172E+01  0.4168E+02
      1.802  0.1699E+01  0.4169E+02
      1.810  0.1760E+01  0.4171E+02
      1.818  0.2894E+01  0.4173E+02
      1.826  0.2958E+01  0.4176E+02
      1.834  0.2145E+01  0.4177E+02
      1.842  0.2122E+01  0.4179E+02
      1.850  0.2604E+01  0.4181E+02
      1.858  0.2807E+01  0.4183E+02
      1.866  0.2554E+01  0.4185E+02
      1.874  0.3038E+01  0.4188E+02
      1.883  0.3516E+01  0.4191E+02
      1.891  0.2614E+01  0.4193E+02
      1.899  0.1789E+01  0.4194E+02
      1.907  0.2880E+01  0.4196E+02
      1.915  0.3737E+01  0.4199E+02
      1.923  0.2260E+01  0.4201E+02
      1.931  0.1269E+01  0.4202E+02
      1.939  0.1399E+01  0.4203E+02
      1.947  0.2274E+01  0.4205E+02
      1.955  0.3410E+01  0.4208E+02
      1.963  0.2972E+01  0.4210E+02
      1.971  0.2458E+01  0.4212E+02
      1.979  0.2797E+01  0.4215E+02
      1.987  0.2597E+01  0.4217E+02
      1.995  0.2757E+01  0.4219E+02
      2.003  0.3434E+01  0.4222E+02
      2.011  0.3626E+01  0.4225E+02
      2.019  0.3462E+01  0.4227E+02
      2.027  0.2738E+01  0.4229E+02
      2.035  0.2058E+01  0.4231E+02
      2.043  0.2355E+01  0.4233E+02
      2.051  0.2749E+01  0.4235E+02
      2.059  0.2387E+01  0.4237E+02
      2.067  0.1537E+01  0.4238E+02
      2.075  0.1148E+01  0.4239E+02
      2.083  0.1599E+01  0.4241E+02
      2.091  0.1816E+01  0.4242E+02
      2.099  0.1499E+01  0.4243E+02
      2.107  0.1571E+01  0.4245E+02
      2.115  0.2037E+01  0.4246E+02
      2.123  0.2282E+01  0.4248E+02
      2.131  0.2615E+01  0.4250E+02
      2.139  0.3455E+01  0.4253E+02
      2.147  0.3082E+01  0.4255E+02
      2.155  0.1799E+01  0.4257E+02
      2.163  0.1253E+01  0.4258E+02
      2.171  0.1924E+01  0.4259E+02
      2.179  0.3006E+01  0.4262E+02
      2.187  0.3225E+01  0.4264E+02
      2.195  0.3001E+01  0.4267E+02
      2.203  0.2929E+01  0.4269E+02
      2.212  0.2555E+01  0.4271E+02
      2.220  0.2592E+01  0.4273E+02
      2.228  0.3956E+01  0.4276E+02
      2.236  0.3424E+01  0.4279E+02
      2.244  0.1858E+01  0.4281E+02
      2.252  0.2191E+01  0.4282E+02
      2.260  0.2954E+01  0.4285E+02
      2.268  0.3195E+01  0.4287E+02
      2.276  0.2983E+01  0.4290E+02
      2.284  0.2802E+01  0.4292E+02
      2.292  0.3006E+01  0.4294E+02
      2.300  0.3189E+01  0.4297E+02
      2.308  0.2353E+01  0.4299E+02
      2.316  0.1457E+01  0.4300E+02
      2.324  0.1473E+01  0.4301E+02
      2.332  0.2535E+01  0.4303E+02
      2.340  0.3752E+01  0.4306E+02
      2.348  0.3431E+01  0.4309E+02
      2.356  0.2089E+01  0.4311E+02
      2.364  0.1343E+01  0.4312E+02
      2.372  0.1883E+01  0.4313E+02
      2.380  0.2110E+01  0.4315E+02
      2.388  0.1901E+01  0.4316E+02
      2.396  0.2169E+01  0.4318E+02
      2.404  0.2799E+01  0.4320E+02
      2.412  0.2712E+01  0.4323E+02
      2.420  0.2507E+01  0.4325E+02
      2.428  0.2191E+01  0.4326E+02
      2.436  0.1529E+01  0.4328E+02
      2.444  0.1578E+01  0.4329E+02
      2.452  0.1685E+01  0.4330E+02
      2.460  0.1558E+01  0.4331E+02
      2.468  0.1090E+01  0.4332E+02
      2.476  0.4898E+00  0.4333E+02
      2.484  0.5119E+00  0.4333E+02
      2.492  0.6770E+00  0.4334E+02
      2.500  0.4041E+00  0.4334E+02
      2.508  0.5222E+00  0.4334E+02
      2.516  0.9242E+00  0.4335E+02
      2.524  0.1303E+01  0.4336E+02
      2.532  0.1734E+01  0.4338E+02
      2.541  0.1317E+01  0.4339E+02
      2.549  0.4211E+00  0.4339E+02
      2.557  0.4928E-01  0.4339E+02
      2.565  0.2699E-01  0.4339E+02
      2.573  0.2256E+00  0.4339E+02
      2.581  0.6254E+00  0.4340E+02
      2.589  0.5443E+00  0.4340E+02
      2.597  0.1485E+00  0.4340E+02
      2.605  0.1675E-01  0.4340E+02
      2.613  0.7588E-01  0.4340E+02
      2.621  0.4055E+00  0.4341E+02
      2.629  0.6786E+00  0.4341E+02
      2.637  0.3571E+00  0.4342E+02
      2.645  0.6539E-01  0.4342E+02
      2.653  0.1058E+00  0.4342E+02
      2.661  0.4678E+00  0.4342E+02
      2.669  0.6649E+00  0.4343E+02
      2.677  0.3018E+00  0.4343E+02
      2.685  0.1223E+00  0.4343E+02
      2.693  0.4213E+00  0.4343E+02
      2.701  0.6809E+00  0.4344E+02
      2.709  0.4164E+00  0.4344E+02
      2.717  0.4820E+00  0.4345E+02
      2.725  0.1019E+01  0.4345E+02
      2.733  0.1507E+01  0.4347E+02
      2.741  0.1273E+01  0.4348E+02
      2.749  0.4536E+00  0.4348E+02
      2.757  0.3641E+00  0.4348E+02
      2.765  0.6740E+00  0.4349E+02
      2.773  0.4409E+00  0.4349E+02
      2.781  0.9598E-01  0.4349E+02
      2.789  0.9741E-01  0.4349E+02
      2.797  0.4444E+00  0.4350E+02
      2.805  0.6718E+00  0.4350E+02
      2.813  0.3198E+00  0.4350E+02
      2.821  0.6392E-01  0.4350E+02
      2.829  0.1798E+00  0.4351E+02
      2.837  0.5810E+00  0.4351E+02
      2.845  0.5958E+00  0.4352E+02
      2.853  0.2044E+00  0.4352E+02
      2.862  0.1711E+00  0.4352E+02
      2.870  0.5501E+00  0.4352E+02
      2.878  0.6324E+00  0.4353E+02
      2.886  0.3569E+00  0.4353E+02
      2.894  0.5801E+00  0.4354E+02
      2.902  0.8957E+00  0.4354E+02
      2.910  0.8900E+00  0.4355E+02
      2.918  0.5398E+00  0.4355E+02
      2.926  0.1275E+00  0.4356E+02
      2.934  0.9624E-02  0.4356E+02
      2.942  0.2188E-03  0.4356E+02
      2.950  0.1667E-05  0.4356E+02
      2.958  0.4714E-04  0.4356E+02
      2.966  0.3113E-02  0.4356E+02
      2.974  0.6109E-01  0.4356E+02
      2.982  0.3651E+00  0.4356E+02
      2.990  0.6802E+00  0.4356E+02
      2.998  0.4245E+00  0.4357E+02
      3.006  0.3080E+00  0.4357E+02
      3.014  0.6367E+00  0.4358E+02
      3.022  0.5336E+00  0.4358E+02
      3.030  0.1426E+00  0.4358E+02
      3.038  0.5220E-01  0.4358E+02
      3.046  0.2957E+00  0.4358E+02
      3.054  0.6658E+00  0.4359E+02
      3.062  0.5082E+00  0.4359E+02
      3.070  0.4265E+00  0.4360E+02
      3.078  0.1001E+01  0.4360E+02
      3.086  0.1449E+01  0.4362E+02
      3.094  0.1365E+01  0.4363E+02
      3.102  0.1100E+01  0.4364E+02
      3.110  0.9014E+00  0.4364E+02
      3.118  0.9154E+00  0.4365E+02
      3.126  0.1202E+01  0.4366E+02
      3.134  0.9751E+00  0.4367E+02
      3.142  0.7421E+00  0.4367E+02
      3.150  0.1106E+01  0.4368E+02
      3.158  0.1406E+01  0.4369E+02
      3.166  0.1556E+01  0.4371E+02
      3.174  0.1259E+01  0.4372E+02
      3.182  0.6571E+00  0.4372E+02
      3.191  0.7086E+00  0.4373E+02
      3.199  0.8646E+00  0.4373E+02
      3.207  0.8307E+00  0.4374E+02
      3.215  0.5125E+00  0.4375E+02
      3.223  0.3729E+00  0.4375E+02
      3.231  0.9091E+00  0.4376E+02
      3.239  0.1193E+01  0.4377E+02
      3.247  0.7333E+00  0.4377E+02
      3.255  0.7811E+00  0.4378E+02
      3.263  0.1526E+01  0.4379E+02
      3.271  0.1720E+01  0.4380E+02
      3.279  0.1502E+01  0.4382E+02
      3.287  0.7098E+00  0.4382E+02
      3.295  0.1223E+00  0.4382E+02
      3.303  0.6848E-02  0.4382E+02
      3.311  0.1190E-03  0.4382E+02
      3.319  0.6199E-06  0.4382E+02
      3.327  0.9452E-09  0.4382E+02
      3.335  0.4144E-12  0.4382E+02
      3.343  0.0000E+00  0.4382E+02
      3.351  0.0000E+00  0.4382E+02
      3.359  0.0000E+00  0.4382E+02
      3.367  0.0000E+00  0.4382E+02
      3.375  0.0000E+00  0.4382E+02
      3.383  0.0000E+00  0.4382E+02
      3.391  0.0000E+00  0.4382E+02
      3.399  0.0000E+00  0.4382E+02
      3.407  0.0000E+00  0.4382E+02
      3.415  0.0000E+00  0.4382E+02
      3.423  0.0000E+00  0.4382E+02
      3.431  0.0000E+00  0.4382E+02
      3.439  0.0000E+00  0.4382E+02
      3.447  0.0000E+00  0.4382E+02
      3.455  0.0000E+00  0.4382E+02
      3.463  0.0000E+00  0.4382E+02
      3.471  0.0000E+00  0.4382E+02
      3.479  0.0000E+00  0.4382E+02
      3.487  0.0000E+00  0.4382E+02
      3.495  0.0000E+00  0.4382E+02
      3.503  0.0000E+00  0.4382E+02
      3.511  0.1845E-14  0.4382E+02
      3.520  0.8870E-11  0.4382E+02
      3.528  0.1231E-07  0.4382E+02
      3.536  0.4873E-05  0.4382E+02
      3.544  0.5573E-03  0.4382E+02
      3.552  0.1875E-01  0.4382E+02
      3.560  0.1900E+00  0.4382E+02
      3.568  0.5940E+00  0.4383E+02
      3.576  0.5858E+00  0.4383E+02
      3.584  0.2423E+00  0.4384E+02
      3.592  0.3880E+00  0.4384E+02
      3.600  0.6801E+00  0.4384E+02
      3.608  0.3915E+00  0.4385E+02
      3.616  0.8027E-01  0.4385E+02
      3.624  0.1339E+00  0.4385E+02
      3.632  0.5168E+00  0.4385E+02
      3.640  0.6428E+00  0.4386E+02
      3.648  0.2537E+00  0.4386E+02
      3.656  0.8390E-01  0.4386E+02
      3.664  0.3423E+00  0.4386E+02
      3.672  0.6766E+00  0.4387E+02
      3.680  0.4285E+00  0.4387E+02
      3.688  0.1840E+00  0.4387E+02
      3.696  0.4714E+00  0.4388E+02
      3.704  0.6803E+00  0.4388E+02
      3.712  0.4661E+00  0.4389E+02
      3.720  0.6651E+00  0.4389E+02
      3.728  0.9658E+00  0.4390E+02
      3.736  0.8841E+00  0.4391E+02
      3.744  0.4289E+00  0.4391E+02
      3.752  0.7700E-01  0.4391E+02
      3.760  0.4371E-02  0.4391E+02
      3.768  0.7433E-04  0.4391E+02
      3.776  0.3690E-06  0.4391E+02
      3.784  0.5272E-09  0.4391E+02
      3.792  0.2729E-08  0.4391E+02
      3.800  0.1428E-05  0.4391E+02
      3.808  0.2152E-03  0.4391E+02
      3.816  0.9498E-02  0.4391E+02
      3.824  0.1255E+00  0.4391E+02
      3.832  0.5099E+00  0.4392E+02
      3.841  0.6655E+00  0.4392E+02
      3.849  0.4476E+00  0.4393E+02
      3.857  0.6255E+00  0.4393E+02
      3.865  0.5848E+00  0.4393E+02
      3.873  0.2017E+00  0.4394E+02
      3.881  0.2265E+00  0.4394E+02
      3.889  0.6127E+00  0.4394E+02
      3.897  0.5625E+00  0.4395E+02
      3.905  0.1851E+00  0.4395E+02
      3.913  0.2316E+00  0.4395E+02
      3.921  0.6193E+00  0.4396E+02
      3.929  0.5577E+00  0.4396E+02
      3.937  0.2330E+00  0.4396E+02
      3.945  0.4253E+00  0.4397E+02
      3.953  0.6894E+00  0.4397E+02
      3.961  0.4914E+00  0.4398E+02
      3.969  0.6289E+00  0.4398E+02
      3.977  0.9383E+00  0.4399E+02
      3.985  0.9049E+00  0.4400E+02
      3.993  0.4915E+00  0.4400E+02
      4.001  0.1019E+00  0.4400E+02
      4.009  0.6730E-02  0.4400E+02
      4.017  0.1337E-03  0.4400E+02
      4.025  0.7775E-06  0.4400E+02
      4.033  0.1300E-08  0.4400E+02
      4.041  0.6179E-12  0.4400E+02
      4.049  0.0000E+00  0.4400E+02
      4.057  0.0000E+00  0.4400E+02
      4.065  0.0000E+00  0.4400E+02
      4.073  0.0000E+00  0.4400E+02
      4.081  0.0000E+00  0.4400E+02
      4.089  0.0000E+00  0.4400E+02
      4.097  0.0000E+00  0.4400E+02
      4.105  0.0000E+00  0.4400E+02
      4.113  0.0000E+00  0.4400E+02
      4.121  0.0000E+00  0.4400E+02
      4.129  0.0000E+00  0.4400E+02
      4.137  0.0000E+00  0.4400E+02
      4.145  0.0000E+00  0.4400E+02
      4.153  0.0000E+00  0.4400E+02
      4.161  0.0000E+00  0.4400E+02
      4.170  0.0000E+00  0.4400E+02
      4.178  0.0000E+00  0.4400E+02
      4.186  0.0000E+00  0.4400E+02
      4.194  0.0000E+00  0.4400E+02
      4.202  0.0000E+00  0.4400E+02
      4.210  0.0000E+00  0.4400E+02
      4.218  0.0000E+00  0.4400E+02
      4.226  0.0000E+00  0.4400E+02
      4.234  0.5534E-14  0.4400E+02
      4.242  0.2101E-10  0.4400E+02
      4.250  0.2264E-07  0.4400E+02
      4.258  0.6975E-05  0.4400E+02
      4.266  0.6227E-03  0.4400E+02
      4.274  0.1643E-01  0.4400E+02
      4.282  0.1312E+00  0.4400E+02
      4.290  0.3246E+00  0.4400E+02
      4.298  0.2523E+00  0.4401E+02
      4.306  0.6180E-01  0.4401E+02
      4.314  0.2014E-01  0.4401E+02
      4.322  0.1700E+00  0.4401E+02
      4.330  0.5720E+00  0.4401E+02
      4.338  0.6036E+00  0.4402E+02
      4.346  0.1999E+00  0.4402E+02
      4.354  0.2043E-01  0.4402E+02
      4.362  0.6296E-03  0.4402E+02
      4.370  0.6511E-05  0.4402E+02
      4.378  0.1178E-03  0.4402E+02
      4.386  0.5101E-02  0.4402E+02
      4.394  0.6749E-01  0.4402E+02
      4.402  0.2968E+00  0.4402E+02
      4.410  0.5262E+00  0.4403E+02
      4.418  0.5104E+00  0.4403E+02
      4.426  0.5087E+00  0.4403E+02
      4.434  0.7024E+00  0.4404E+02
      4.442  0.4984E+00  0.4404E+02
      4.450  0.4885E+00  0.4405E+02
      4.458  0.1119E+01  0.4406E+02
      4.466  0.1134E+01  0.4407E+02
      4.474  0.4177E+00  0.4407E+02
      4.482  0.5333E-01  0.4407E+02
      4.490  0.2219E-02  0.4407E+02
      4.499  0.3624E-03  0.4407E+02
      4.507  0.1065E-01  0.4407E+02
      4.515  0.1024E+00  0.4407E+02
      4.523  0.3042E+00  0.4407E+02
      4.531  0.2895E+00  0.4408E+02
      4.539  0.1975E+00  0.4408E+02
      4.547  0.7330E+00  0.4408E+02
      4.555  0.1583E+01  0.4410E+02
      4.563  0.1203E+01  0.4411E+02
      4.571  0.4309E+00  0.4411E+02
      4.579  0.6539E+00  0.4411E+02
      4.587  0.1189E+01  0.4412E+02
      4.595  0.9113E+00  0.4413E+02
      4.603  0.2739E+00  0.4413E+02
      4.611  0.2900E-01  0.4413E+02
      4.619  0.1240E-02  0.4413E+02
      4.627  0.1166E-01  0.4413E+02
      4.635  0.1658E+00  0.4413E+02
      4.643  0.7829E+00  0.4414E+02
      4.651  0.1297E+01  0.4415E+02
      4.659  0.8922E+00  0.4416E+02
      4.667  0.6920E+00  0.4416E+02
      4.675  0.7474E+00  0.4417E+02
      4.683  0.8282E+00  0.4418E+02
      4.691  0.1269E+01  0.4419E+02
      4.699  0.1169E+01  0.4420E+02
      4.707  0.9854E+00  0.4420E+02
      4.715  0.1040E+01  0.4421E+02
      4.723  0.8491E+00  0.4422E+02
      4.731  0.4984E+00  0.4422E+02
      4.739  0.5882E+00  0.4423E+02
      4.747  0.8696E+00  0.4424E+02
      4.755  0.9266E+00  0.4424E+02
      4.763  0.5379E+00  0.4425E+02
      4.771  0.3631E+00  0.4425E+02
      4.779  0.1056E+01  0.4426E+02
      4.787  0.1757E+01  0.4427E+02
      4.795  0.1545E+01  0.4428E+02
      4.803  0.1456E+01  0.4430E+02
      4.811  0.1309E+01  0.4431E+02
      4.820  0.5798E+00  0.4431E+02
      4.828  0.5465E+00  0.4432E+02
      4.836  0.7664E+00  0.4432E+02
      4.844  0.6511E+00  0.4433E+02
      4.852  0.6081E+00  0.4433E+02
      4.860  0.5820E+00  0.4434E+02
      4.868  0.5112E+00  0.4434E+02
      4.876  0.5102E+00  0.4435E+02
      4.884  0.7027E+00  0.4435E+02
      4.892  0.5258E+00  0.4435E+02
      4.900  0.4998E+00  0.4436E+02
      4.908  0.1291E+01  0.4437E+02
      4.916  0.1765E+01  0.4438E+02
      4.924  0.1334E+01  0.4439E+02
      4.932  0.9386E+00  0.4440E+02
      4.940  0.6533E+00  0.4441E+02
      4.948  0.9212E+00  0.4441E+02
      4.956  0.1573E+01  0.4443E+02
      4.964  0.1510E+01  0.4444E+02
      4.972  0.1279E+01  0.4445E+02
      4.980  0.9541E+00  0.4446E+02
      4.988  0.7761E+00  0.4446E+02
      4.996  0.6739E+00  0.4447E+02
      5.004  0.5624E+00  0.4447E+02
      5.012  0.7031E+00  0.4448E+02
      5.020  0.4796E+00  0.4448E+02
      5.028  0.6700E+00  0.4449E+02
      5.036  0.1844E+01  0.4450E+02
      5.044  0.2919E+01  0.4453E+02
      5.052  0.2317E+01  0.4454E+02
      5.060  0.8559E+00  0.4455E+02
      5.068  0.3598E+00  0.4455E+02
      5.076  0.7970E+00  0.4456E+02
      5.084  0.1448E+01  0.4457E+02
      5.092  0.1380E+01  0.4458E+02
      5.100  0.1487E+01  0.4460E+02
      5.108  0.2341E+01  0.4461E+02
      5.116  0.2420E+01  0.4463E+02
      5.124  0.1572E+01  0.4465E+02
      5.132  0.7454E+00  0.4465E+02
      5.140  0.3241E+00  0.4466E+02
      5.149  0.5615E+00  0.4466E+02
      5.157  0.7936E+00  0.4467E+02
      5.165  0.1085E+01  0.4467E+02
      5.173  0.1896E+01  0.4469E+02
      5.181  0.1812E+01  0.4470E+02
      5.189  0.7230E+00  0.4471E+02
      5.197  0.1167E+00  0.4471E+02
      5.205  0.1637E+00  0.4471E+02
      5.213  0.8972E+00  0.4472E+02
      5.221  0.2196E+01  0.4474E+02
      5.229  0.2836E+01  0.4476E+02
      5.237  0.2121E+01  0.4478E+02
      5.245  0.1766E+01  0.4479E+02
      5.253  0.2343E+01  0.4481E+02
      5.261  0.2738E+01  0.4483E+02
      5.269  0.2447E+01  0.4485E+02
      5.277  0.1217E+01  0.4486E+02
      5.285  0.2450E+00  0.4486E+02
      5.293  0.7668E-01  0.4486E+02
      5.301  0.4703E+00  0.4487E+02
      5.309  0.1283E+01  0.4488E+02
      5.317  0.1476E+01  0.4489E+02
      5.325  0.1081E+01  0.4490E+02
      5.333  0.1083E+01  0.4491E+02
      5.341  0.2261E+01  0.4493E+02
      5.349  0.3004E+01  0.4495E+02
      5.357  0.2493E+01  0.4497E+02
      5.365  0.1953E+01  0.4499E+02
      5.373  0.1809E+01  0.4500E+02
      5.381  0.2035E+01  0.4502E+02
      5.389  0.1892E+01  0.4503E+02
      5.397  0.1661E+01  0.4504E+02
      5.405  0.2312E+01  0.4506E+02
      5.413  0.3123E+01  0.4509E+02
      5.421  0.3580E+01  0.4512E+02
      5.429  0.2656E+01  0.4514E+02
      5.437  0.2007E+01  0.4515E+02
      5.445  0.3004E+01  0.4518E+02
      5.453  0.2779E+01  0.4520E+02
      5.461  0.1863E+01  0.4522E+02
      5.469  0.1996E+01  0.4523E+02
      5.478  0.2967E+01  0.4526E+02
      5.486  0.3750E+01  0.4529E+02
      5.494  0.3321E+01  0.4531E+02
      5.502  0.2726E+01  0.4533E+02
      5.510  0.2393E+01  0.4535E+02
      5.518  0.2269E+01  0.4537E+02
      5.526  0.2618E+01  0.4539E+02
      5.534  0.3178E+01  0.4542E+02
      5.542  0.3486E+01  0.4545E+02
      5.550  0.3025E+01  0.4547E+02
      5.558  0.1922E+01  0.4549E+02
      5.566  0.9278E+00  0.4549E+02
      5.574  0.8729E+00  0.4550E+02
      5.582  0.1527E+01  0.4551E+02
      5.590  0.2700E+01  0.4553E+02
      5.598  0.3273E+01  0.4556E+02
      5.606  0.3417E+01  0.4559E+02
      5.614  0.4082E+01  0.4562E+02
      5.622  0.3921E+01  0.4565E+02
      5.630  0.3640E+01  0.4568E+02
      5.638  0.3286E+01  0.4571E+02
      5.646  0.2316E+01  0.4573E+02
      5.654  0.2113E+01  0.4574E+02
      5.662  0.2782E+01  0.4577E+02
      5.670  0.3265E+01  0.4579E+02
      5.678  0.3142E+01  0.4582E+02
      5.686  0.3822E+01  0.4585E+02
      5.694  0.4082E+01  0.4588E+02
      5.702  0.3144E+01  0.4591E+02
      5.710  0.2256E+01  0.4592E+02
      5.718  0.3080E+01  0.4595E+02
      5.726  0.4568E+01  0.4598E+02
      5.734  0.3458E+01  0.4601E+02
      5.742  0.1768E+01  0.4603E+02
      5.750  0.1445E+01  0.4604E+02
      5.758  0.2115E+01  0.4606E+02
      5.766  0.3489E+01  0.4608E+02
      5.774  0.4950E+01  0.4612E+02
      5.782  0.5665E+01  0.4617E+02
      5.790  0.4577E+01  0.4621E+02
      5.799  0.3440E+01  0.4623E+02
      5.807  0.3215E+01  0.4626E+02
      5.815  0.3928E+01  0.4629E+02
      5.823  0.4211E+01  0.4632E+02
      5.831  0.3153E+01  0.4635E+02
      5.839  0.2331E+01  0.4637E+02
      5.847  0.2079E+01  0.4638E+02
      5.855  0.2081E+01  0.4640E+02
      5.863  0.2070E+01  0.4642E+02
      5.871  0.2665E+01  0.4644E+02
      5.879  0.4687E+01  0.4648E+02
      5.887  0.6069E+01  0.4653E+02
      5.895  0.5332E+01  0.4657E+02
      5.903  0.4208E+01  0.4660E+02
      5.911  0.3773E+01  0.4663E+02
      5.919  0.4409E+01  0.4667E+02
      5.927  0.5056E+01  0.4671E+02
      5.935  0.6176E+01  0.4676E+02
      5.943  0.7183E+01  0.4682E+02
      5.951  0.6863E+01  0.4687E+02
      5.959  0.5505E+01  0.4692E+02
      5.967  0.4207E+01  0.4695E+02
      5.975  0.3451E+01  0.4698E+02
      5.983  0.2915E+01  0.4700E+02
      5.991  0.2000E+01  0.4702E+02
      5.999  0.2221E+01  0.4703E+02
      6.007  0.4267E+01  0.4707E+02
      6.015  0.5736E+01  0.4711E+02
      6.023  0.5633E+01  0.4716E+02
      6.031  0.6115E+01  0.4721E+02
      6.039  0.6744E+01  0.4726E+02
      6.047  0.6276E+01  0.4731E+02
      6.055  0.6019E+01  0.4736E+02
      6.063  0.5725E+01  0.4741E+02
      6.071  0.4186E+01  0.4744E+02
      6.079  0.2580E+01  0.4746E+02
      6.087  0.2763E+01  0.4748E+02
      6.095  0.3079E+01  0.4751E+02
      6.103  0.2578E+01  0.4753E+02
      6.111  0.3665E+01  0.4756E+02
      6.119  0.5862E+01  0.4761E+02
      6.128  0.5800E+01  0.4765E+02
      6.136  0.4439E+01  0.4769E+02
      6.144  0.2764E+01  0.4771E+02
      6.152  0.1982E+01  0.4773E+02
      6.160  0.3110E+01  0.4775E+02
      6.168  0.4341E+01  0.4779E+02
      6.176  0.4623E+01  0.4782E+02
      6.184  0.3863E+01  0.4785E+02
      6.192  0.4091E+01  0.4789E+02
      6.200  0.4742E+01  0.4792E+02
      6.208  0.5801E+01  0.4797E+02
      6.216  0.6478E+01  0.4802E+02
      6.224  0.5537E+01  0.4807E+02
      6.232  0.5904E+01  0.4811E+02
      6.240  0.7029E+01  0.4817E+02
      6.248  0.5645E+01  0.4822E+02
      6.256  0.4146E+01  0.4825E+02
      6.264  0.4846E+01  0.4829E+02
      6.272  0.5180E+01  0.4833E+02
      6.280  0.3314E+01  0.4836E+02
      6.288  0.1910E+01  0.4837E+02
      6.296  0.2548E+01  0.4839E+02
      6.304  0.4044E+01  0.4842E+02
      6.312  0.4483E+01  0.4846E+02
      6.320  0.3939E+01  0.4849E+02
      6.328  0.4685E+01  0.4853E+02
      6.336  0.6284E+01  0.4858E+02
      6.344  0.5786E+01  0.4863E+02
      6.352  0.4117E+01  0.4866E+02
      6.360  0.4218E+01  0.4869E+02
      6.368  0.4169E+01  0.4873E+02
      6.376  0.3585E+01  0.4876E+02
      6.384  0.3102E+01  0.4878E+02
      6.392  0.2260E+01  0.4880E+02
      6.400  0.2615E+01  0.4882E+02
      6.408  0.3381E+01  0.4885E+02
      6.416  0.3313E+01  0.4887E+02
      6.424  0.3228E+01  0.4890E+02
      6.432  0.3846E+01  0.4893E+02
      6.440  0.4993E+01  0.4897E+02
      6.448  0.5713E+01  0.4902E+02
      6.457  0.4818E+01  0.4906E+02
      6.465  0.3746E+01  0.4909E+02
      6.473  0.2860E+01  0.4911E+02
      6.481  0.3405E+01  0.4914E+02
      6.489  0.4568E+01  0.4917E+02
      6.497  0.4247E+01  0.4921E+02
      6.505  0.3362E+01  0.4923E+02
      6.513  0.2782E+01  0.4926E+02
      6.521  0.2915E+01  0.4928E+02
      6.529  0.2971E+01  0.4930E+02
      6.537  0.2996E+01  0.4933E+02
      6.545  0.5259E+01  0.4937E+02
      6.553  0.7794E+01  0.4943E+02
      6.561  0.6755E+01  0.4949E+02
      6.569  0.5165E+01  0.4953E+02
      6.577  0.4916E+01  0.4957E+02
      6.585  0.3743E+01  0.4960E+02
      6.593  0.3004E+01  0.4962E+02
      6.601  0.2884E+01  0.4964E+02
      6.609  0.2359E+01  0.4966E+02
      6.617  0.2720E+01  0.4968E+02
      6.625  0.3187E+01  0.4971E+02
      6.633  0.2838E+01  0.4973E+02
      6.641  0.1489E+01  0.4974E+02
      6.649  0.1320E+01  0.4976E+02
      6.657  0.2655E+01  0.4978E+02
      6.665  0.2782E+01  0.4980E+02
      6.673  0.2076E+01  0.4982E+02
      6.681  0.1922E+01  0.4983E+02
      6.689  0.2624E+01  0.4985E+02
      6.697  0.3298E+01  0.4988E+02
      6.705  0.3399E+01  0.4991E+02
      6.713  0.3840E+01  0.4994E+02
      6.721  0.4889E+01  0.4998E+02
      6.729  0.7361E+01  0.5004E+02
      6.737  0.7814E+01  0.5010E+02
      6.745  0.4885E+01  0.5014E+02
      6.753  0.3196E+01  0.5016E+02
      6.761  0.2801E+01  0.5019E+02
      6.769  0.2625E+01  0.5021E+02
      6.778  0.3949E+01  0.5024E+02
      6.786  0.5395E+01  0.5028E+02
      6.794  0.5771E+01  0.5033E+02
      6.802  0.5060E+01  0.5037E+02
      6.810  0.3565E+01  0.5040E+02
      6.818  0.1915E+01  0.5041E+02
      6.826  0.1855E+01  0.5043E+02
      6.834  0.2567E+01  0.5045E+02
      6.842  0.2831E+01  0.5047E+02
      6.850  0.3838E+01  0.5050E+02
      6.858  0.4003E+01  0.5053E+02
      6.866  0.4254E+01  0.5057E+02
      6.874  0.6055E+01  0.5062E+02
      6.882  0.6993E+01  0.5067E+02
      6.890  0.7202E+01  0.5073E+02
      6.898  0.7201E+01  0.5079E+02
      6.906  0.5954E+01  0.5084E+02
      6.914  0.3780E+01  0.5087E+02
      6.922  0.3600E+01  0.5089E+02
      6.930  0.3881E+01  0.5093E+02
      6.938  0.3738E+01  0.5096E+02
      6.946  0.3656E+01  0.5099E+02
      6.954  0.4285E+01  0.5102E+02
      6.962  0.5764E+01  0.5107E+02
      6.970  0.5805E+01  0.5111E+02
      6.978  0.5146E+01  0.5115E+02
      6.986  0.3961E+01  0.5119E+02
      6.994  0.3557E+01  0.5121E+02
      7.002  0.4593E+01  0.5125E+02
      7.010  0.4537E+01  0.5129E+02
      7.018  0.3830E+01  0.5132E+02
      7.026  0.3209E+01  0.5134E+02
      7.034  0.4101E+01  0.5138E+02
      7.042  0.6350E+01  0.5143E+02
      7.050  0.6294E+01  0.5148E+02
      7.058  0.5028E+01  0.5152E+02
      7.066  0.4292E+01  0.5155E+02
      7.074  0.3564E+01  0.5158E+02
      7.082  0.3874E+01  0.5161E+02
      7.090  0.4635E+01  0.5165E+02
      7.098  0.4563E+01  0.5169E+02
      7.107  0.4004E+01  0.5172E+02
      7.115  0.3256E+01  0.5174E+02
      7.123  0.2283E+01  0.5176E+02
      7.131  0.1806E+01  0.5178E+02
      7.139  0.2906E+01  0.5180E+02
      7.147  0.4640E+01  0.5184E+02
      7.155  0.4500E+01  0.5187E+02
      7.163  0.3881E+01  0.5191E+02
      7.171  0.5184E+01  0.5195E+02
      7.179  0.6402E+01  0.5200E+02
      7.187  0.6405E+01  0.5205E+02
      7.195  0.5980E+01  0.5210E+02
      7.203  0.4939E+01  0.5214E+02
      7.211  0.3171E+01  0.5216E+02
      7.219  0.2474E+01  0.5218E+02
      7.227  0.4464E+01  0.5222E+02
      7.235  0.7402E+01  0.5228E+02
      7.243  0.6937E+01  0.5233E+02
      7.251  0.4750E+01  0.5237E+02
      7.259  0.4311E+01  0.5241E+02
      7.267  0.5227E+01  0.5245E+02
      7.275  0.7865E+01  0.5251E+02
      7.283  0.9177E+01  0.5258E+02
      7.291  0.7563E+01  0.5265E+02
      7.299  0.5538E+01  0.5269E+02
      7.307  0.5162E+01  0.5273E+02
      7.315  0.5173E+01  0.5277E+02
      7.323  0.4550E+01  0.5281E+02
      7.331  0.5409E+01  0.5285E+02
      7.339  0.5793E+01  0.5290E+02
      7.347  0.5206E+01  0.5294E+02
      7.355  0.5004E+01  0.5298E+02
      7.363  0.4560E+01  0.5302E+02
      7.371  0.4826E+01  0.5306E+02
      7.379  0.4836E+01  0.5310E+02
      7.387  0.3379E+01  0.5312E+02
      7.395  0.2678E+01  0.5314E+02
      7.403  0.4041E+01  0.5318E+02
      7.411  0.4426E+01  0.5321E+02
      7.419  0.2250E+01  0.5323E+02
      7.427  0.1517E+01  0.5324E+02
      7.436  0.3021E+01  0.5327E+02
      7.444  0.3937E+01  0.5330E+02
      7.452  0.3665E+01  0.5333E+02
      7.460  0.3510E+01  0.5336E+02
      7.468  0.4133E+01  0.5339E+02
      7.476  0.5539E+01  0.5343E+02
      7.484  0.5499E+01  0.5348E+02
      7.492  0.3995E+01  0.5351E+02
      7.500  0.4095E+01  0.5354E+02
      7.508  0.5629E+01  0.5359E+02
      7.516  0.8104E+01  0.5365E+02
      7.524  0.7591E+01  0.5371E+02
      7.532  0.4450E+01  0.5375E+02
      7.540  0.3120E+01  0.5377E+02
      7.548  0.3997E+01  0.5381E+02
      7.556  0.5184E+01  0.5385E+02
      7.564  0.4971E+01  0.5389E+02
      7.572  0.3665E+01  0.5392E+02
      7.580  0.2876E+01  0.5394E+02
      7.588  0.2275E+01  0.5396E+02
      7.596  0.1862E+01  0.5397E+02
      7.604  0.1872E+01  0.5399E+02
      7.612  0.1656E+01  0.5400E+02
      7.620  0.2641E+01  0.5402E+02
      7.628  0.4273E+01  0.5406E+02
      7.636  0.3880E+01  0.5409E+02
      7.644  0.2989E+01  0.5411E+02
      7.652  0.2733E+01  0.5413E+02
      7.660  0.3659E+01  0.5416E+02
      7.668  0.4969E+01  0.5420E+02
      7.676  0.5230E+01  0.5425E+02
      7.684  0.4602E+01  0.5428E+02
      7.692  0.4189E+01  0.5432E+02
      7.700  0.3364E+01  0.5434E+02
      7.708  0.3678E+01  0.5437E+02
      7.716  0.4023E+01  0.5440E+02
      7.724  0.2608E+01  0.5443E+02
      7.732  0.2676E+01  0.5445E+02
      7.740  0.4316E+01  0.5448E+02
      7.748  0.4868E+01  0.5452E+02
      7.757  0.4682E+01  0.5456E+02
      7.765  0.3643E+01  0.5459E+02
      7.773  0.2323E+01  0.5461E+02
      7.781  0.1311E+01  0.5462E+02
      7.789  0.7375E+00  0.5462E+02
      7.797  0.1004E+01  0.5463E+02
      7.805  0.2147E+01  0.5465E+02
      7.813  0.3159E+01  0.5467E+02
      7.821  0.2875E+01  0.5470E+02
      7.829  0.2342E+01  0.5472E+02
      7.837  0.2082E+01  0.5473E+02
      7.845  0.2140E+01  0.5475E+02
      7.853  0.2581E+01  0.5477E+02
      7.861  0.3334E+01  0.5480E+02
      7.869  0.4383E+01  0.5483E+02
      7.877  0.5763E+01  0.5488E+02
      7.885  0.5773E+01  0.5492E+02
      7.893  0.4150E+01  0.5496E+02
      7.901  0.4031E+01  0.5499E+02
      7.909  0.5066E+01  0.5503E+02
      7.917  0.4159E+01  0.5506E+02
      7.925  0.3415E+01  0.5509E+02
      7.933  0.3217E+01  0.5512E+02
      7.941  0.2000E+01  0.5513E+02
      7.949  0.9674E+00  0.5514E+02
      7.957  0.4907E+00  0.5515E+02
      7.965  0.9921E+00  0.5515E+02
      7.973  0.1627E+01  0.5517E+02
      7.981  0.2051E+01  0.5518E+02
      7.989  0.2990E+01  0.5521E+02
      7.997  0.3602E+01  0.5524E+02
      8.005  0.4450E+01  0.5527E+02
      8.013  0.5681E+01  0.5532E+02
      8.021  0.5338E+01  0.5536E+02
      8.029  0.3246E+01  0.5539E+02
      8.037  0.1540E+01  0.5540E+02
      8.045  0.1120E+01  0.5541E+02
      8.053  0.2271E+01  0.5543E+02
      8.061  0.4232E+01  0.5546E+02
      8.069  0.5189E+01  0.5550E+02
      8.077  0.5436E+01  0.5554E+02
      8.086  0.5251E+01  0.5559E+02
      8.094  0.4777E+01  0.5562E+02
      8.102  0.5746E+01  0.5567E+02
      8.110  0.6754E+01  0.5573E+02
      8.118  0.6014E+01  0.5577E+02
      8.126  0.4387E+01  0.5581E+02
      8.134  0.2680E+01  0.5583E+02
      8.142  0.2107E+01  0.5585E+02
      8.150  0.3110E+01  0.5587E+02
      8.158  0.4021E+01  0.5590E+02
      8.166  0.3714E+01  0.5593E+02
      8.174  0.3122E+01  0.5596E+02
      8.182  0.2760E+01  0.5598E+02
      8.190  0.3312E+01  0.5601E+02
      8.198  0.5210E+01  0.5605E+02
      8.206  0.5672E+01  0.5610E+02
      8.214  0.4741E+01  0.5613E+02
      8.222  0.4337E+01  0.5617E+02
      8.230  0.3958E+01  0.5620E+02
      8.238  0.3271E+01  0.5623E+02
      8.246  0.2884E+01  0.5625E+02
      8.254  0.3292E+01  0.5628E+02
      8.262  0.4884E+01  0.5631E+02
      8.270  0.5386E+01  0.5636E+02
      8.278  0.3115E+01  0.5638E+02
      8.286  0.1956E+01  0.5640E+02
      8.294  0.3088E+01  0.5642E+02
      8.302  0.3009E+01  0.5645E+02
      8.310  0.1979E+01  0.5646E+02
      8.318  0.1763E+01  0.5648E+02
      8.326  0.3618E+01  0.5651E+02
      8.334  0.5304E+01  0.5655E+02
      8.342  0.6003E+01  0.5660E+02
      8.350  0.6118E+01  0.5665E+02
      8.358  0.3810E+01  0.5668E+02
      8.366  0.1528E+01  0.5669E+02
      8.374  0.9626E+00  0.5670E+02
      8.382  0.2861E+01  0.5672E+02
      8.390  0.4703E+01  0.5676E+02
      8.398  0.3953E+01  0.5679E+02
      8.406  0.3479E+01  0.5682E+02
      8.415  0.4181E+01  0.5685E+02
      8.423  0.4535E+01  0.5689E+02
      8.431  0.4225E+01  0.5692E+02
      8.439  0.4160E+01  0.5695E+02
      8.447  0.4054E+01  0.5699E+02
      8.455  0.5423E+01  0.5703E+02
      8.463  0.5830E+01  0.5708E+02
      8.471  0.4440E+01  0.5711E+02
      8.479  0.5937E+01  0.5716E+02
      8.487  0.7381E+01  0.5722E+02
      8.495  0.4861E+01  0.5726E+02
      8.503  0.4010E+01  0.5729E+02
      8.511  0.4884E+01  0.5733E+02
      8.519  0.3865E+01  0.5736E+02
      8.527  0.3071E+01  0.5739E+02
      8.535  0.3839E+01  0.5742E+02
      8.543  0.4488E+01  0.5745E+02
      8.551  0.4082E+01  0.5749E+02
      8.559  0.2728E+01  0.5751E+02
      8.567  0.1920E+01  0.5752E+02
      8.575  0.1924E+01  0.5754E+02
      8.583  0.1896E+01  0.5755E+02
      8.591  0.2357E+01  0.5757E+02
      8.599  0.3644E+01  0.5760E+02
      8.607  0.5388E+01  0.5764E+02
      8.615  0.5046E+01  0.5769E+02
      8.623  0.4055E+01  0.5772E+02
      8.631  0.5508E+01  0.5776E+02
      8.639  0.6567E+01  0.5781E+02
      8.647  0.5770E+01  0.5786E+02
      8.655  0.5570E+01  0.5791E+02
      8.663  0.6332E+01  0.5796E+02
      8.671  0.6212E+01  0.5801E+02
      8.679  0.3941E+01  0.5804E+02
      8.687  0.2729E+01  0.5806E+02
      8.695  0.2871E+01  0.5808E+02
      8.703  0.3659E+01  0.5811E+02
      8.711  0.4816E+01  0.5815E+02
      8.719  0.4197E+01  0.5818E+02
      8.727  0.3239E+01  0.5821E+02
      8.736  0.2946E+01  0.5823E+02
      8.744  0.2541E+01  0.5825E+02
      8.752  0.2360E+01  0.5827E+02
      8.760  0.2771E+01  0.5830E+02
      8.768  0.3372E+01  0.5832E+02
      8.776  0.4194E+01  0.5836E+02
      8.784  0.4101E+01  0.5839E+02
      8.792  0.3689E+01  0.5842E+02
      8.800  0.5101E+01  0.5846E+02
      8.808  0.6471E+01  0.5851E+02
      8.816  0.5786E+01  0.5856E+02
      8.824  0.4850E+01  0.5860E+02
      8.832  0.3907E+01  0.5863E+02
      8.840  0.3330E+01  0.5866E+02
      8.848  0.4360E+01  0.5869E+02
      8.856  0.5301E+01  0.5873E+02
      8.864  0.4939E+01  0.5877E+02
      8.872  0.4385E+01  0.5881E+02
      8.880  0.4960E+01  0.5885E+02
      8.888  0.5625E+01  0.5889E+02
      8.896  0.5897E+01  0.5894E+02
      8.904  0.6875E+01  0.5900E+02
      8.912  0.7118E+01  0.5905E+02
      8.920  0.5348E+01  0.5910E+02
      8.928  0.4728E+01  0.5913E+02
      8.936  0.7209E+01  0.5919E+02
      8.944  0.9117E+01  0.5926E+02
      8.952  0.7380E+01  0.5932E+02
      8.960  0.3951E+01  0.5936E+02
      8.968  0.3682E+01  0.5938E+02
      8.976  0.5500E+01  0.5943E+02
      8.984  0.6003E+01  0.5948E+02
      8.992  0.4825E+01  0.5952E+02
      9.000  0.3889E+01  0.5955E+02
      9.008  0.5161E+01  0.5959E+02
      9.016  0.5984E+01  0.5964E+02
      9.024  0.5689E+01  0.5968E+02
      9.032  0.5618E+01  0.5973E+02
      9.040  0.5948E+01  0.5977E+02
      9.048  0.5555E+01  0.5982E+02
      9.056  0.5247E+01  0.5986E+02
      9.065  0.5507E+01  0.5991E+02
      9.073  0.5148E+01  0.5995E+02
      9.081  0.5860E+01  0.5999E+02
      9.089  0.5603E+01  0.6004E+02
      9.097  0.4838E+01  0.6008E+02
      9.105  0.5638E+01  0.6012E+02
      9.113  0.5908E+01  0.6017E+02
      9.121  0.6076E+01  0.6022E+02
      9.129  0.6409E+01  0.6027E+02
      9.137  0.6888E+01  0.6033E+02
      9.145  0.7749E+01  0.6039E+02
      9.153  0.6760E+01  0.6044E+02
      9.161  0.3679E+01  0.6047E+02
      9.169  0.1842E+01  0.6049E+02
      9.177  0.2789E+01  0.6051E+02
      9.185  0.4660E+01  0.6055E+02
      9.193  0.5765E+01  0.6059E+02
      9.201  0.6561E+01  0.6065E+02
      9.209  0.5372E+01  0.6069E+02
      9.217  0.3436E+01  0.6072E+02
      9.225  0.3476E+01  0.6074E+02
      9.233  0.5051E+01  0.6078E+02
      9.241  0.5857E+01  0.6083E+02
      9.249  0.5630E+01  0.6088E+02
      9.257  0.6101E+01  0.6093E+02
      9.265  0.7014E+01  0.6098E+02
      9.273  0.6946E+01  0.6104E+02
      9.281  0.5784E+01  0.6108E+02
      9.289  0.4766E+01  0.6112E+02
      9.297  0.3327E+01  0.6115E+02
      9.305  0.2888E+01  0.6117E+02
      9.313  0.4413E+01  0.6121E+02
      9.321  0.4385E+01  0.6124E+02
      9.329  0.3645E+01  0.6127E+02
      9.337  0.5300E+01  0.6131E+02
      9.345  0.7772E+01  0.6138E+02
      9.353  0.5884E+01  0.6142E+02
      9.361  0.3324E+01  0.6145E+02
      9.369  0.3916E+01  0.6148E+02
      9.377  0.5852E+01  0.6153E+02
      9.385  0.5799E+01  0.6158E+02
      9.394  0.4993E+01  0.6162E+02
      9.402  0.5004E+01  0.6166E+02
      9.410  0.4724E+01  0.6169E+02
      9.418  0.4183E+01  0.6173E+02
      9.426  0.4171E+01  0.6176E+02
      9.434  0.4525E+01  0.6180E+02
      9.442  0.4245E+01  0.6183E+02
      9.450  0.3080E+01  0.6186E+02
      9.458  0.4124E+01  0.6189E+02
      9.466  0.6638E+01  0.6194E+02
      9.474  0.6261E+01  0.6199E+02
      9.482  0.4041E+01  0.6202E+02
      9.490  0.2837E+01  0.6205E+02
      9.498  0.3117E+01  0.6207E+02
      9.506  0.4285E+01  0.6211E+02
      9.514  0.4822E+01  0.6215E+02
      9.522  0.3668E+01  0.6218E+02
      9.530  0.2679E+01  0.6220E+02
      9.538  0.3161E+01  0.6222E+02
      9.546  0.5288E+01  0.6226E+02
      9.554  0.7544E+01  0.6233E+02
      9.562  0.8078E+01  0.6239E+02
      9.570  0.6974E+01  0.6245E+02
      9.578  0.5641E+01  0.6249E+02
      9.586  0.5152E+01  0.6253E+02
      9.594  0.4339E+01  0.6257E+02
      9.602  0.3382E+01  0.6259E+02
      9.610  0.4472E+01  0.6263E+02
      9.618  0.5877E+01  0.6268E+02
      9.626  0.6471E+01  0.6273E+02
      9.634  0.5739E+01  0.6278E+02
      9.642  0.4856E+01  0.6281E+02
      9.650  0.5544E+01  0.6286E+02
      9.658  0.7182E+01  0.6292E+02
      9.666  0.7351E+01  0.6298E+02
      9.674  0.5998E+01  0.6302E+02
      9.682  0.4058E+01  0.6306E+02
      9.690  0.3217E+01  0.6308E+02
      9.698  0.4598E+01  0.6312E+02
      9.706  0.6466E+01  0.6317E+02
      9.714  0.6259E+01  0.6322E+02
      9.723  0.4182E+01  0.6325E+02
      9.731  0.3442E+01  0.6328E+02
      9.739  0.4889E+01  0.6332E+02
      9.747  0.6045E+01  0.6337E+02
      9.755  0.5904E+01  0.6342E+02
      9.763  0.5111E+01  0.6346E+02
      9.771  0.4767E+01  0.6350E+02
      9.779  0.4858E+01  0.6354E+02
      9.787  0.5134E+01  0.6358E+02
      9.795  0.6014E+01  0.6363E+02
      9.803  0.5727E+01  0.6367E+02
      9.811  0.4698E+01  0.6371E+02
      9.819  0.5158E+01  0.6375E+02
      9.827  0.6227E+01  0.6380E+02
      9.835  0.5034E+01  0.6384E+02
      9.843  0.3667E+01  0.6387E+02
      9.851  0.4519E+01  0.6391E+02
      9.859  0.6138E+01  0.6396E+02
      9.867  0.7436E+01  0.6402E+02
      9.875  0.7211E+01  0.6407E+02
      9.883  0.4699E+01  0.6411E+02
      9.891  0.4239E+01  0.6414E+02
      9.899  0.5473E+01  0.6419E+02
      9.907  0.5176E+01  0.6423E+02
      9.915  0.4361E+01  0.6427E+02
      9.923  0.4311E+01  0.6430E+02
      9.931  0.3335E+01  0.6433E+02
      9.939  0.2373E+01  0.6435E+02
      9.947  0.3381E+01  0.6437E+02
      9.955  0.5791E+01  0.6442E+02
      9.963  0.6146E+01  0.6447E+02
      9.971  0.3621E+01  0.6450E+02
      9.979  0.2215E+01  0.6452E+02
      9.987  0.2373E+01  0.6453E+02
      9.995  0.2126E+01  0.6455E+02
     10.003  0.1507E+01  0.6456E+02
     10.011  0.1306E+01  0.6457E+02
     10.019  0.2070E+01  0.6459E+02
     10.027  0.3067E+01  0.6462E+02
     10.035  0.3712E+01  0.6464E+02
     10.044  0.3802E+01  0.6468E+02
     10.052  0.4403E+01  0.6471E+02
     10.060  0.4019E+01  0.6474E+02
     10.068  0.3322E+01  0.6477E+02
     10.076  0.4327E+01  0.6480E+02
     10.084  0.6306E+01  0.6486E+02
     10.092  0.6330E+01  0.6491E+02
     10.100  0.4567E+01  0.6494E+02
     10.108  0.4697E+01  0.6498E+02
     10.116  0.5884E+01  0.6503E+02
     10.124  0.6132E+01  0.6508E+02
     10.132  0.6109E+01  0.6513E+02
     10.140  0.6360E+01  0.6518E+02
     10.148  0.6464E+01  0.6523E+02
     10.156  0.6276E+01  0.6528E+02
     10.164  0.5853E+01  0.6533E+02
     10.172  0.6292E+01  0.6538E+02
     10.180  0.4842E+01  0.6542E+02
     10.188  0.3640E+01  0.6544E+02
     10.196  0.4238E+01  0.6548E+02
     10.204  0.5287E+01  0.6552E+02
     10.212  0.6283E+01  0.6557E+02
     10.220  0.6080E+01  0.6562E+02
     10.228  0.5302E+01  0.6566E+02
     10.236  0.4822E+01  0.6570E+02
     10.244  0.5803E+01  0.6575E+02
     10.252  0.6071E+01  0.6580E+02
     10.260  0.5883E+01  0.6584E+02
     10.268  0.5368E+01  0.6589E+02
     10.276  0.4363E+01  0.6592E+02
     10.284  0.3970E+01  0.6595E+02
     10.292  0.3576E+01  0.6598E+02
     10.300  0.4011E+01  0.6601E+02
     10.308  0.3819E+01  0.6605E+02
     10.316  0.3061E+01  0.6607E+02
     10.324  0.3564E+01  0.6610E+02
     10.332  0.2684E+01  0.6612E+02
     10.340  0.1356E+01  0.6613E+02
     10.348  0.1849E+01  0.6615E+02
     10.356  0.3303E+01  0.6617E+02
     10.364  0.4583E+01  0.6621E+02
     10.373  0.5451E+01  0.6625E+02
     10.381  0.6237E+01  0.6630E+02
     10.389  0.6963E+01  0.6636E+02
     10.397  0.6090E+01  0.6641E+02
     10.405  0.4650E+01  0.6644E+02
     10.413  0.4505E+01  0.6648E+02
     10.421  0.4901E+01  0.6652E+02
     10.429  0.5289E+01  0.6656E+02
     10.437  0.5052E+01  0.6660E+02
     10.445  0.6220E+01  0.6665E+02
     10.453  0.8161E+01  0.6672E+02
     10.461  0.8391E+01  0.6679E+02
     10.469  0.7073E+01  0.6684E+02
     10.477  0.6604E+01  0.6690E+02
     10.485  0.6305E+01  0.6695E+02
     10.493  0.6689E+01  0.6700E+02
     10.501  0.6396E+01  0.6705E+02
     10.509  0.5339E+01  0.6709E+02
     10.517  0.4197E+01  0.6713E+02
     10.525  0.3831E+01  0.6716E+02
     10.533  0.4269E+01  0.6719E+02
     10.541  0.4927E+01  0.6723E+02
     10.549  0.5789E+01  0.6728E+02
     10.557  0.4454E+01  0.6731E+02
     10.565  0.3239E+01  0.6734E+02
     10.573  0.3196E+01  0.6737E+02
     10.581  0.2941E+01  0.6739E+02
     10.589  0.4124E+01  0.6742E+02
     10.597  0.5381E+01  0.6747E+02
     10.605  0.4690E+01  0.6750E+02
     10.613  0.5092E+01  0.6754E+02
     10.621  0.5399E+01  0.6759E+02
     10.629  0.4698E+01  0.6763E+02
     10.637  0.4653E+01  0.6766E+02
     10.645  0.4890E+01  0.6770E+02
     10.653  0.5100E+01  0.6774E+02
     10.661  0.3763E+01  0.6777E+02
     10.669  0.2809E+01  0.6780E+02
     10.677  0.2477E+01  0.6782E+02
     10.685  0.1683E+01  0.6783E+02
     10.693  0.1233E+01  0.6784E+02
     10.702  0.1523E+01  0.6785E+02
     10.710  0.2334E+01  0.6787E+02
     10.718  0.3633E+01  0.6790E+02
     10.726  0.5865E+01  0.6795E+02
     10.734  0.7281E+01  0.6800E+02
     10.742  0.5877E+01  0.6805E+02
     10.750  0.3342E+01  0.6808E+02
     10.758  0.2208E+01  0.6810E+02
     10.766  0.2969E+01  0.6812E+02
     10.774  0.3985E+01  0.6815E+02
     10.782  0.3845E+01  0.6818E+02
     10.790  0.3380E+01  0.6821E+02
     10.798  0.3960E+01  0.6824E+02
     10.806  0.3805E+01  0.6827E+02
     10.814  0.2603E+01  0.6829E+02
     10.822  0.1203E+01  0.6830E+02
     10.830  0.6577E+00  0.6831E+02
     10.838  0.1341E+01  0.6832E+02
     10.846  0.1946E+01  0.6833E+02
     10.854  0.2835E+01  0.6836E+02
     10.862  0.3623E+01  0.6839E+02
     10.870  0.3942E+01  0.6842E+02
     10.878  0.5318E+01  0.6846E+02
     10.886  0.5718E+01  0.6851E+02
     10.894  0.5273E+01  0.6855E+02
     10.902  0.4919E+01  0.6859E+02
     10.910  0.4703E+01  0.6863E+02
     10.918  0.4622E+01  0.6866E+02
     10.926  0.3966E+01  0.6870E+02
     10.934  0.4060E+01  0.6873E+02
     10.942  0.5163E+01  0.6877E+02
     10.950  0.5833E+01  0.6882E+02
     10.958  0.4738E+01  0.6885E+02
     10.966  0.3893E+01  0.6889E+02
     10.974  0.2996E+01  0.6891E+02
     10.982  0.1443E+01  0.6892E+02
     10.990  0.1270E+01  0.6893E+02
     10.998  0.2591E+01  0.6895E+02
     11.006  0.4169E+01  0.6899E+02
     11.014  0.6259E+01  0.6904E+02
     11.023  0.9493E+01  0.6911E+02
     11.031  0.1015E+02  0.6919E+02
     11.039  0.7619E+01  0.6925E+02
     11.047  0.4913E+01  0.6929E+02
     11.055  0.3471E+01  0.6932E+02
     11.063  0.4255E+01  0.6936E+02
     11.071  0.6084E+01  0.6940E+02
     11.079  0.5768E+01  0.6945E+02
     11.087  0.4924E+01  0.6949E+02
     11.095  0.6822E+01  0.6955E+02
     11.103  0.7907E+01  0.6961E+02
     11.111  0.6181E+01  0.6966E+02
     11.119  0.4924E+01  0.6970E+02
     11.127  0.4972E+01  0.6974E+02
     11.135  0.4877E+01  0.6978E+02
     11.143  0.4434E+01  0.6981E+02
     11.151  0.3321E+01  0.6984E+02
     11.159  0.3125E+01  0.6986E+02
     11.167  0.3862E+01  0.6989E+02
     11.175  0.4316E+01  0.6993E+02
     11.183  0.4717E+01  0.6997E+02
     11.191  0.5471E+01  0.7001E+02
     11.199  0.6231E+01  0.7006E+02
     11.207  0.7861E+01  0.7012E+02
     11.215  0.9636E+01  0.7020E+02
     11.223  0.8325E+01  0.7027E+02
     11.231  0.6417E+01  0.7032E+02
     11.239  0.5205E+01  0.7036E+02
     11.247  0.4981E+01  0.7040E+02
     11.255  0.5834E+01  0.7045E+02
     11.263  0.6269E+01  0.7050E+02
     11.271  0.6669E+01  0.7055E+02
     11.279  0.5694E+01  0.7060E+02
     11.287  0.5234E+01  0.7064E+02
     11.295  0.6104E+01  0.7069E+02
     11.303  0.6985E+01  0.7075E+02
     11.311  0.6838E+01  0.7080E+02
     11.319  0.4841E+01  0.7084E+02
     11.327  0.3168E+01  0.7086E+02
     11.335  0.3643E+01  0.7089E+02
     11.343  0.5620E+01  0.7094E+02
     11.352  0.6025E+01  0.7099E+02
     11.360  0.5686E+01  0.7103E+02
     11.368  0.6315E+01  0.7108E+02
     11.376  0.5765E+01  0.7113E+02
     11.384  0.4013E+01  0.7116E+02
     11.392  0.4115E+01  0.7119E+02
     11.400  0.4342E+01  0.7123E+02
     11.408  0.4208E+01  0.7126E+02
     11.416  0.5648E+01  0.7131E+02
     11.424  0.7427E+01  0.7137E+02
     11.432  0.6860E+01  0.7142E+02
     11.440  0.4799E+01  0.7146E+02
     11.448  0.3364E+01  0.7149E+02
     11.456  0.3887E+01  0.7152E+02
     11.464  0.3874E+01  0.7155E+02
     11.472  0.4472E+01  0.7159E+02
     11.480  0.5774E+01  0.7163E+02
     11.488  0.6361E+01  0.7168E+02
     11.496  0.5736E+01  0.7173E+02
     11.504  0.4538E+01  0.7177E+02
     11.512  0.4014E+01  0.7180E+02
     11.520  0.3599E+01  0.7183E+02
     11.528  0.3015E+01  0.7185E+02
     11.536  0.3242E+01  0.7188E+02
     11.544  0.3715E+01  0.7191E+02
     11.552  0.3668E+01  0.7194E+02
     11.560  0.4600E+01  0.7197E+02
     11.568  0.6107E+01  0.7202E+02
     11.576  0.6044E+01  0.7207E+02
     11.584  0.4202E+01  0.7211E+02
     11.592  0.3740E+01  0.7214E+02
     11.600  0.4289E+01  0.7217E+02
     11.608  0.4833E+01  0.7221E+02
     11.616  0.4880E+01  0.7225E+02
     11.624  0.3772E+01  0.7228E+02
     11.632  0.2747E+01  0.7230E+02
     11.640  0.3939E+01  0.7233E+02
     11.648  0.5086E+01  0.7237E+02
     11.656  0.4488E+01  0.7241E+02
     11.664  0.4934E+01  0.7245E+02
     11.672  0.5979E+01  0.7250E+02
     11.681  0.7003E+01  0.7255E+02
     11.689  0.7061E+01  0.7261E+02
     11.697  0.5281E+01  0.7265E+02
     11.705  0.3003E+01  0.7268E+02
     11.713  0.2570E+01  0.7270E+02
     11.721  0.4032E+01  0.7273E+02
     11.729  0.6172E+01  0.7278E+02
     11.737  0.7038E+01  0.7283E+02
     11.745  0.6342E+01  0.7289E+02
     11.753  0.5315E+01  0.7293E+02
     11.761  0.5441E+01  0.7297E+02
     11.769  0.7019E+01  0.7303E+02
     11.777  0.6867E+01  0.7308E+02
     11.785  0.5013E+01  0.7312E+02
     11.793  0.4354E+01  0.7316E+02
     11.801  0.5870E+01  0.7321E+02
     11.809  0.6034E+01  0.7325E+02
     11.817  0.3527E+01  0.7328E+02
     11.825  0.2576E+01  0.7330E+02
     11.833  0.4208E+01  0.7334E+02
     11.841  0.5874E+01  0.7338E+02
     11.849  0.5927E+01  0.7343E+02
     11.857  0.5183E+01  0.7347E+02
     11.865  0.5402E+01  0.7352E+02
     11.873  0.5358E+01  0.7356E+02
     11.881  0.4681E+01  0.7360E+02
     11.889  0.4780E+01  0.7364E+02
     11.897  0.4872E+01  0.7367E+02
     11.905  0.5008E+01  0.7371E+02
     11.913  0.4466E+01  0.7375E+02
     11.921  0.5154E+01  0.7379E+02
     11.929  0.7174E+01  0.7385E+02
     11.937  0.8138E+01  0.7391E+02
     11.945  0.8597E+01  0.7398E+02
     11.953  0.6893E+01  0.7404E+02
     11.961  0.5840E+01  0.7409E+02
     11.969  0.6684E+01  0.7414E+02
     11.977  0.5967E+01  0.7419E+02
     11.985  0.5547E+01  0.7423E+02
     11.993  0.6969E+01  0.7429E+02
     12.002  0.7373E+01  0.7435E+02
     12.010  0.5805E+01  0.7439E+02
     12.018  0.4746E+01  0.7443E+02
     12.026  0.4514E+01  0.7447E+02
     12.034  0.3585E+01  0.7450E+02
     12.042  0.2447E+01  0.7452E+02
     12.050  0.3304E+01  0.7454E+02
     12.058  0.4282E+01  0.7458E+02
     12.066  0.5210E+01  0.7462E+02
     12.074  0.7227E+01  0.7468E+02
     12.082  0.8386E+01  0.7474E+02
     12.090  0.7644E+01  0.7481E+02
     12.098  0.6675E+01  0.7486E+02
     12.106  0.6242E+01  0.7491E+02
     12.114  0.5849E+01  0.7496E+02
     12.122  0.6960E+01  0.7501E+02
     12.130  0.9303E+01  0.7509E+02
     12.138  0.8201E+01  0.7515E+02
     12.146  0.6133E+01  0.7520E+02
     12.154  0.5576E+01  0.7525E+02
     12.162  0.6324E+01  0.7530E+02
     12.170  0.6714E+01  0.7535E+02
     12.178  0.5813E+01  0.7540E+02
     12.186  0.5104E+01  0.7544E+02
     12.194  0.3693E+01  0.7547E+02
     12.202  0.3143E+01  0.7549E+02
     12.210  0.3526E+01  0.7552E+02
     12.218  0.3209E+01  0.7555E+02
     12.226  0.4456E+01  0.7558E+02
     12.234  0.7436E+01  0.7564E+02
     12.242  0.7341E+01  0.7570E+02
     12.250  0.4817E+01  0.7574E+02
     12.258  0.4122E+01  0.7577E+02
     12.266  0.4942E+01  0.7581E+02
     12.274  0.5997E+01  0.7586E+02
     12.282  0.6482E+01  0.7591E+02
     12.290  0.6320E+01  0.7596E+02
     12.298  0.6628E+01  0.7602E+02
     12.306  0.6849E+01  0.7607E+02
     12.314  0.6136E+01  0.7612E+02
     12.322  0.5394E+01  0.7616E+02
     12.331  0.5802E+01  0.7621E+02
     12.339  0.6184E+01  0.7626E+02
     12.347  0.6012E+01  0.7631E+02
     12.355  0.5134E+01  0.7635E+02
     12.363  0.4998E+01  0.7639E+02
     12.371  0.4663E+01  0.7643E+02
     12.379  0.3826E+01  0.7646E+02
     12.387  0.4917E+01  0.7650E+02
     12.395  0.5799E+01  0.7654E+02
     12.403  0.5584E+01  0.7659E+02
     12.411  0.6254E+01  0.7664E+02
     12.419  0.6907E+01  0.7669E+02
     12.427  0.6111E+01  0.7674E+02
     12.435  0.4924E+01  0.7678E+02
     12.443  0.4766E+01  0.7682E+02
     12.451  0.5524E+01  0.7687E+02
     12.459  0.6259E+01  0.7692E+02
     12.467  0.5164E+01  0.7696E+02
     12.475  0.4307E+01  0.7699E+02
     12.483  0.4820E+01  0.7703E+02
     12.491  0.4751E+01  0.7707E+02
     12.499  0.4142E+01  0.7710E+02
     12.507  0.4315E+01  0.7714E+02
     12.515  0.5986E+01  0.7718E+02
     12.523  0.7982E+01  0.7725E+02
     12.531  0.6924E+01  0.7730E+02
     12.539  0.5198E+01  0.7735E+02
     12.547  0.4913E+01  0.7739E+02
     12.555  0.5429E+01  0.7743E+02
     12.563  0.6273E+01  0.7748E+02
     12.571  0.6271E+01  0.7753E+02
     12.579  0.5360E+01  0.7757E+02
     12.587  0.5747E+01  0.7762E+02
     12.595  0.6470E+01  0.7767E+02
     12.603  0.6517E+01  0.7772E+02
     12.611  0.7127E+01  0.7778E+02
     12.619  0.7609E+01  0.7784E+02
     12.627  0.6846E+01  0.7790E+02
     12.635  0.5120E+01  0.7794E+02
     12.643  0.5425E+01  0.7798E+02
     12.651  0.7698E+01  0.7804E+02
     12.660  0.8066E+01  0.7811E+02
     12.668  0.7213E+01  0.7817E+02
     12.676  0.6201E+01  0.7822E+02
     12.684  0.6004E+01  0.7826E+02
     12.692  0.7897E+01  0.7833E+02
     12.700  0.8162E+01  0.7839E+02
     12.708  0.7232E+01  0.7845E+02
     12.716  0.5862E+01  0.7850E+02
     12.724  0.4891E+01  0.7854E+02
     12.732  0.5013E+01  0.7858E+02
     12.740  0.6573E+01  0.7863E+02
     12.748  0.7215E+01  0.7869E+02
     12.756  0.6679E+01  0.7874E+02
     12.764  0.4933E+01  0.7878E+02
     12.772  0.2829E+01  0.7880E+02
     12.780  0.3199E+01  0.7883E+02
     12.788  0.5643E+01  0.7887E+02
     12.796  0.6188E+01  0.7892E+02
     12.804  0.4818E+01  0.7896E+02
     12.812  0.3891E+01  0.7899E+02
     12.820  0.3892E+01  0.7903E+02
     12.828  0.4182E+01  0.7906E+02
     12.836  0.4542E+01  0.7910E+02
     12.844  0.5575E+01  0.7914E+02
     12.852  0.6237E+01  0.7919E+02
     12.860  0.5873E+01  0.7924E+02
     12.868  0.4468E+01  0.7927E+02
     12.876  0.4408E+01  0.7931E+02
     12.884  0.5241E+01  0.7935E+02
     12.892  0.6419E+01  0.7940E+02
     12.900  0.6815E+01  0.7946E+02
     12.908  0.6167E+01  0.7951E+02
     12.916  0.5443E+01  0.7955E+02
     12.924  0.5600E+01  0.7959E+02
     12.932  0.5244E+01  0.7964E+02
     12.940  0.6262E+01  0.7969E+02
     12.948  0.8673E+01  0.7976E+02
     12.956  0.7656E+01  0.7982E+02
     12.964  0.5387E+01  0.7986E+02
     12.972  0.4211E+01  0.7989E+02
     12.981  0.4261E+01  0.7993E+02
     12.989  0.3240E+01  0.7996E+02
     12.997  0.2654E+01  0.7998E+02
     13.005  0.4611E+01  0.8001E+02
     13.013  0.6702E+01  0.8007E+02
     13.021  0.6968E+01  0.8012E+02
     13.029  0.5450E+01  0.8017E+02
     13.037  0.5416E+01  0.8021E+02
     13.045  0.6367E+01  0.8026E+02
     13.053  0.6447E+01  0.8031E+02
     13.061  0.6047E+01  0.8036E+02
     13.069  0.5227E+01  0.8040E+02
     13.077  0.4960E+01  0.8044E+02
     13.085  0.6259E+01  0.8049E+02
     13.093  0.6399E+01  0.8055E+02
     13.101  0.6331E+01  0.8060E+02
     13.109  0.7198E+01  0.8065E+02
     13.117  0.6166E+01  0.8070E+02
     13.125  0.4837E+01  0.8074E+02
     13.133  0.4379E+01  0.8078E+02
     13.141  0.3775E+01  0.8081E+02
     13.149  0.4514E+01  0.8084E+02
     13.157  0.6184E+01  0.8089E+02
     13.165  0.6992E+01  0.8095E+02
     13.173  0.7913E+01  0.8101E+02
     13.181  0.8674E+01  0.8108E+02
     13.189  0.8640E+01  0.8115E+02
     13.197  0.9326E+01  0.8123E+02
     13.205  0.1027E+02  0.8131E+02
     13.213  0.9532E+01  0.8139E+02
     13.221  0.7695E+01  0.8145E+02
     13.229  0.5817E+01  0.8149E+02
     13.237  0.4783E+01  0.8153E+02
     13.245  0.4769E+01  0.8157E+02
     13.253  0.5154E+01  0.8161E+02
     13.261  0.5024E+01  0.8165E+02
     13.269  0.4212E+01  0.8169E+02
     13.277  0.3477E+01  0.8171E+02
     13.285  0.4599E+01  0.8175E+02
     13.293  0.5690E+01  0.8180E+02
     13.301  0.4849E+01  0.8184E+02
     13.310  0.4922E+01  0.8187E+02
     13.318  0.6270E+01  0.8193E+02
     13.326  0.5399E+01  0.8197E+02
     13.334  0.3727E+01  0.8200E+02
     13.342  0.3549E+01  0.8203E+02
     13.350  0.4096E+01  0.8206E+02
     13.358  0.4734E+01  0.8210E+02
     13.366  0.6393E+01  0.8215E+02
     13.374  0.7244E+01  0.8221E+02
     13.382  0.6169E+01  0.8226E+02
     13.390  0.5134E+01  0.8230E+02
     13.398  0.5148E+01  0.8234E+02
     13.406  0.5135E+01  0.8238E+02
     13.414  0.4386E+01  0.8242E+02
     13.422  0.5754E+01  0.8246E+02
     13.430  0.8654E+01  0.8253E+02
     13.438  0.8650E+01  0.8260E+02
     13.446  0.6873E+01  0.8266E+02
     13.454  0.4660E+01  0.8269E+02
     13.462  0.2654E+01  0.8271E+02
     13.470  0.2511E+01  0.8273E+02
     13.478  0.5909E+01  0.8278E+02
     13.486  0.1054E+02  0.8287E+02
     13.494  0.1099E+02  0.8295E+02
     13.502  0.8523E+01  0.8302E+02
     13.510  0.6497E+01  0.8308E+02
     13.518  0.5981E+01  0.8312E+02
     13.526  0.6096E+01  0.8317E+02
     13.534  0.5383E+01  0.8322E+02
     13.542  0.5159E+01  0.8326E+02
     13.550  0.6105E+01  0.8331E+02
     13.558  0.5959E+01  0.8335E+02
     13.566  0.4040E+01  0.8339E+02
     13.574  0.3457E+01  0.8341E+02
     13.582  0.3710E+01  0.8344E+02
     13.590  0.5381E+01  0.8349E+02
     13.598  0.6428E+01  0.8354E+02
     13.606  0.5577E+01  0.8358E+02
     13.614  0.5086E+01  0.8362E+02
     13.622  0.4365E+01  0.8366E+02
     13.630  0.3940E+01  0.8369E+02
     13.639  0.4054E+01  0.8372E+02
     13.647  0.3944E+01  0.8375E+02
     13.655  0.4970E+01  0.8379E+02
     13.663  0.5650E+01  0.8384E+02
     13.671  0.6357E+01  0.8389E+02
     13.679  0.7303E+01  0.8395E+02
     13.687  0.7335E+01  0.8401E+02
     13.695  0.5893E+01  0.8406E+02
     13.703  0.4535E+01  0.8409E+02
     13.711  0.3557E+01  0.8412E+02
     13.719  0.4075E+01  0.8415E+02
     13.727  0.4709E+01  0.8419E+02
     13.735  0.4022E+01  0.8422E+02
     13.743  0.4465E+01  0.8426E+02
     13.751  0.5845E+01  0.8431E+02
     13.759  0.6441E+01  0.8436E+02
     13.767  0.7324E+01  0.8442E+02
     13.775  0.8509E+01  0.8448E+02
     13.783  0.8751E+01  0.8456E+02
     13.791  0.8469E+01  0.8462E+02
     13.799  0.9009E+01  0.8470E+02
     13.807  0.9687E+01  0.8477E+02
     13.815  0.1002E+02  0.8485E+02
     13.823  0.9434E+01  0.8493E+02
     13.831  0.5760E+01  0.8498E+02
     13.839  0.2367E+01  0.8499E+02
     13.847  0.1692E+01  0.8501E+02
     13.855  0.2377E+01  0.8503E+02
     13.863  0.3657E+01  0.8506E+02
     13.871  0.4703E+01  0.8509E+02
     13.879  0.3192E+01  0.8512E+02
     13.887  0.2540E+01  0.8514E+02
     13.895  0.5265E+01  0.8518E+02
     13.903  0.7919E+01  0.8525E+02
     13.911  0.6623E+01  0.8530E+02
     13.919  0.3553E+01  0.8533E+02
     13.927  0.2560E+01  0.8535E+02
     13.935  0.3135E+01  0.8537E+02
     13.943  0.3996E+01  0.8541E+02
     13.951  0.5075E+01  0.8545E+02
     13.960  0.6547E+01  0.8550E+02
     13.968  0.7966E+01  0.8556E+02
     13.976  0.8332E+01  0.8563E+02
     13.984  0.7874E+01  0.8569E+02
     13.992  0.6429E+01  0.8574E+02
     14.000  0.5393E+01  0.8579E+02
     14.008  0.5053E+01  0.8583E+02
     14.016  0.3993E+01  0.8586E+02
     14.024  0.3987E+01  0.8589E+02
     14.032  0.5889E+01  0.8594E+02
     14.040  0.7180E+01  0.8600E+02
     14.048  0.6569E+01  0.8605E+02
     14.056  0.5643E+01  0.8609E+02
     14.064  0.5497E+01  0.8614E+02
     14.072  0.5075E+01  0.8618E+02
     14.080  0.5534E+01  0.8622E+02
     14.088  0.5072E+01  0.8626E+02
     14.096  0.3134E+01  0.8629E+02
     14.104  0.2660E+01  0.8631E+02
     14.112  0.3789E+01  0.8634E+02
     14.120  0.4489E+01  0.8638E+02
     14.128  0.5078E+01  0.8642E+02
     14.136  0.5303E+01  0.8646E+02
     14.144  0.5132E+01  0.8650E+02
     14.152  0.5304E+01  0.8654E+02
     14.160  0.5820E+01  0.8659E+02
     14.168  0.5629E+01  0.8664E+02
     14.176  0.5544E+01  0.8668E+02
     14.184  0.5401E+01  0.8672E+02
     14.192  0.5773E+01  0.8677E+02
     14.200  0.5352E+01  0.8681E+02
     14.208  0.3639E+01  0.8684E+02
     14.216  0.2353E+01  0.8686E+02
     14.224  0.2763E+01  0.8688E+02
     14.232  0.3340E+01  0.8691E+02
     14.240  0.4258E+01  0.8695E+02
     14.248  0.6054E+01  0.8699E+02
     14.256  0.7939E+01  0.8706E+02
     14.264  0.7983E+01  0.8712E+02
     14.272  0.6863E+01  0.8718E+02
     14.280  0.6783E+01  0.8723E+02
     14.289  0.7012E+01  0.8729E+02
     14.297  0.6268E+01  0.8734E+02
     14.305  0.6242E+01  0.8739E+02
     14.313  0.6883E+01  0.8744E+02
     14.321  0.4930E+01  0.8748E+02
     14.329  0.2992E+01  0.8751E+02
     14.337  0.3865E+01  0.8754E+02
     14.345  0.5086E+01  0.8758E+02
     14.353  0.5129E+01  0.8762E+02
     14.361  0.4103E+01  0.8765E+02
     14.369  0.3718E+01  0.8768E+02
     14.377  0.3694E+01  0.8771E+02
     14.385  0.4270E+01  0.8775E+02
     14.393  0.5398E+01  0.8779E+02
     14.401  0.5400E+01  0.8783E+02
     14.409  0.3728E+01  0.8786E+02
     14.417  0.3040E+01  0.8789E+02
     14.425  0.3422E+01  0.8791E+02
     14.433  0.4107E+01  0.8795E+02
     14.441  0.5861E+01  0.8799E+02
     14.449  0.6724E+01  0.8805E+02
     14.457  0.5668E+01  0.8809E+02
     14.465  0.4977E+01  0.8813E+02
     14.473  0.5834E+01  0.8818E+02
     14.481  0.5396E+01  0.8822E+02
     14.489  0.3237E+01  0.8825E+02
     14.497  0.3341E+01  0.8828E+02
     14.505  0.4965E+01  0.8832E+02
     14.513  0.5429E+01  0.8836E+02
     14.521  0.6017E+01  0.8841E+02
     14.529  0.5463E+01  0.8845E+02
     14.537  0.4045E+01  0.8848E+02
     14.545  0.3796E+01  0.8852E+02
     14.553  0.3977E+01  0.8855E+02
     14.561  0.5297E+01  0.8859E+02
     14.569  0.5971E+01  0.8864E+02
     14.577  0.5478E+01  0.8868E+02
     14.585  0.5963E+01  0.8873E+02
     14.593  0.5998E+01  0.8878E+02
     14.601  0.4198E+01  0.8881E+02
     14.609  0.4160E+01  0.8884E+02
     14.618  0.6936E+01  0.8890E+02
     14.626  0.8215E+01  0.8897E+02
     14.634  0.6954E+01  0.8902E+02
     14.642  0.6809E+01  0.8908E+02
     14.650  0.7035E+01  0.8913E+02
     14.658  0.5968E+01  0.8918E+02
     14.666  0.4113E+01  0.8921E+02
     14.674  0.2835E+01  0.8924E+02
     14.682  0.3742E+01  0.8927E+02
     14.690  0.5127E+01  0.8931E+02
     14.698  0.5308E+01  0.8935E+02
     14.706  0.5328E+01  0.8939E+02
     14.714  0.5119E+01  0.8943E+02
     14.722  0.4346E+01  0.8947E+02
     14.730  0.2897E+01  0.8949E+02
     14.738  0.1819E+01  0.8951E+02
     14.746  0.2140E+01  0.8952E+02
     14.754  0.3635E+01  0.8955E+02
     14.762  0.5505E+01  0.8960E+02
     14.770  0.5799E+01  0.8964E+02
     14.778  0.6011E+01  0.8969E+02
     14.786  0.7552E+01  0.8975E+02
     14.794  0.6573E+01  0.8981E+02
     14.802  0.4162E+01  0.8984E+02
     14.810  0.3513E+01  0.8987E+02
     14.818  0.4119E+01  0.8990E+02
     14.826  0.4210E+01  0.8993E+02
     14.834  0.3044E+01  0.8996E+02
     14.842  0.1750E+01  0.8997E+02
     14.850  0.2549E+01  0.8999E+02
     14.858  0.3707E+01  0.9002E+02
     14.866  0.2898E+01  0.9005E+02
     14.874  0.2263E+01  0.9006E+02
     14.882  0.3453E+01  0.9009E+02
     14.890  0.4529E+01  0.9013E+02
     14.898  0.4949E+01  0.9017E+02
     14.906  0.5221E+01  0.9021E+02
     14.914  0.5193E+01  0.9025E+02
     14.922  0.5322E+01  0.9029E+02
     14.930  0.6349E+01  0.9035E+02
     14.939  0.6841E+01  0.9040E+02
     14.947  0.7159E+01  0.9046E+02
     14.955  0.5954E+01  0.9051E+02
     14.963  0.4681E+01  0.9054E+02
     14.971  0.5022E+01  0.9058E+02
     14.979  0.5100E+01  0.9062E+02
     14.987  0.4723E+01  0.9066E+02
     14.995  0.4993E+01  0.9070E+02
     15.003  0.5190E+01  0.9074E+02
     15.011  0.5572E+01  0.9079E+02
     15.019  0.6845E+01  0.9084E+02
     15.027  0.9019E+01  0.9092E+02
     15.035  0.1065E+02  0.9100E+02
     15.043  0.9220E+01  0.9108E+02
     15.051  0.6694E+01  0.9113E+02
     15.059  0.4753E+01  0.9117E+02
     15.067  0.3720E+01  0.9120E+02
     15.075  0.4432E+01  0.9123E+02
     15.083  0.4961E+01  0.9127E+02
     15.091  0.4703E+01  0.9131E+02
     15.099  0.5304E+01  0.9135E+02
     15.107  0.6808E+01  0.9141E+02
     15.115  0.8085E+01  0.9147E+02
     15.123  0.7736E+01  0.9153E+02
     15.131  0.6991E+01  0.9159E+02
     15.139  0.6657E+01  0.9164E+02
     15.147  0.6129E+01  0.9169E+02
     15.155  0.4287E+01  0.9173E+02
     15.163  0.2821E+01  0.9175E+02
     15.171  0.3442E+01  0.9178E+02
     15.179  0.6116E+01  0.9183E+02
     15.187  0.7423E+01  0.9189E+02
     15.195  0.5201E+01  0.9193E+02
     15.203  0.4419E+01  0.9196E+02
     15.211  0.4787E+01  0.9200E+02
     15.219  0.5119E+01  0.9204E+02
     15.227  0.5686E+01  0.9209E+02
     15.235  0.6284E+01  0.9214E+02
     15.243  0.7182E+01  0.9220E+02
     15.251  0.7577E+01  0.9226E+02
     15.259  0.7388E+01  0.9232E+02
     15.268  0.6912E+01  0.9237E+02
     15.276  0.5880E+01  0.9242E+02
     15.284  0.5681E+01  0.9246E+02
     15.292  0.5440E+01  0.9251E+02
     15.300  0.4104E+01  0.9254E+02
     15.308  0.3285E+01  0.9257E+02
     15.316  0.4010E+01  0.9260E+02
     15.324  0.4579E+01  0.9264E+02
     15.332  0.3910E+01  0.9267E+02
     15.340  0.4150E+01  0.9270E+02
     15.348  0.5498E+01  0.9275E+02
     15.356  0.6665E+01  0.9280E+02
     15.364  0.6459E+01  0.9285E+02
     15.372  0.5797E+01  0.9290E+02
     15.380  0.6723E+01  0.9295E+02
     15.388  0.8181E+01  0.9302E+02
     15.396  0.8540E+01  0.9309E+02
     15.404  0.6675E+01  0.9314E+02
     15.412  0.4443E+01  0.9317E+02
     15.420  0.4432E+01  0.9321E+02
     15.428  0.6724E+01  0.9326E+02
     15.436  0.8824E+01  0.9333E+02
     15.444  0.9474E+01  0.9341E+02
     15.452  0.8226E+01  0.9348E+02
     15.460  0.7288E+01  0.9354E+02
     15.468  0.7194E+01  0.9359E+02
     15.476  0.6798E+01  0.9365E+02
     15.484  0.5805E+01  0.9369E+02
     15.492  0.4202E+01  0.9373E+02
     15.500  0.3660E+01  0.9376E+02
     15.508  0.5130E+01  0.9380E+02
     15.516  0.7590E+01  0.9386E+02
     15.524  0.7703E+01  0.9392E+02
     15.532  0.5578E+01  0.9397E+02
     15.540  0.5353E+01  0.9401E+02
     15.548  0.5735E+01  0.9406E+02
     15.556  0.6211E+01  0.9410E+02
     15.564  0.5867E+01  0.9415E+02
     15.572  0.4844E+01  0.9419E+02
     15.580  0.4851E+01  0.9423E+02
     15.588  0.5645E+01  0.9428E+02
     15.597  0.5922E+01  0.9432E+02
     15.605  0.4797E+01  0.9436E+02
     15.613  0.4160E+01  0.9439E+02
     15.621  0.4471E+01  0.9443E+02
     15.629  0.4330E+01  0.9447E+02
     15.637  0.4864E+01  0.9450E+02
     15.645  0.4470E+01  0.9454E+02
     15.653  0.4262E+01  0.9457E+02
     15.661  0.4404E+01  0.9461E+02
     15.669  0.3895E+01  0.9464E+02
     15.677  0.4403E+01  0.9468E+02
     15.685  0.5495E+01  0.9472E+02
     15.693  0.5909E+01  0.9477E+02
     15.701  0.5981E+01  0.9482E+02
     15.709  0.5658E+01  0.9486E+02
     15.717  0.4365E+01  0.9490E+02
     15.725  0.2624E+01  0.9492E+02
     15.733  0.1393E+01  0.9493E+02
     15.741  0.1164E+01  0.9494E+02
     15.749  0.1803E+01  0.9495E+02
     15.757  0.3030E+01  0.9498E+02
     15.765  0.3923E+01  0.9501E+02
     15.773  0.3740E+01  0.9504E+02
     15.781  0.2970E+01  0.9506E+02
     15.789  0.2036E+01  0.9508E+02
     15.797  0.1287E+01  0.9509E+02
     15.805  0.8270E+00  0.9509E+02
     15.813  0.1180E+01  0.9510E+02
     15.821  0.2200E+01  0.9512E+02
     15.829  0.2784E+01  0.9514E+02
     15.837  0.2118E+01  0.9516E+02
     15.845  0.1846E+01  0.9518E+02
     15.853  0.3214E+01  0.9520E+02
     15.861  0.4301E+01  0.9524E+02
     15.869  0.3320E+01  0.9526E+02
     15.877  0.2613E+01  0.9528E+02
     15.885  0.3368E+01  0.9531E+02
     15.893  0.3324E+01  0.9534E+02
     15.901  0.2757E+01  0.9536E+02
     15.909  0.2262E+01  0.9538E+02
     15.918  0.2357E+01  0.9540E+02
     15.926  0.2933E+01  0.9542E+02
     15.934  0.3359E+01  0.9545E+02
     15.942  0.3279E+01  0.9547E+02
     15.950  0.3264E+01  0.9550E+02
     15.958  0.3123E+01  0.9553E+02
     15.966  0.2016E+01  0.9554E+02
     15.974  0.8585E+00  0.9555E+02
     15.982  0.6490E+00  0.9555E+02
     15.990  0.1290E+01  0.9556E+02
     15.998  0.1594E+01  0.9558E+02
     16.006  0.1585E+01  0.9559E+02
     16.014  0.1040E+01  0.9560E+02
     16.022  0.2821E+00  0.9560E+02
     16.030  0.1809E+00  0.9560E+02
     16.038  0.8414E+00  0.9561E+02
     16.046  0.1798E+01  0.9562E+02
     16.054  0.1840E+01  0.9564E+02
     16.062  0.1255E+01  0.9565E+02
     16.070  0.8386E+00  0.9565E+02
     16.078  0.4206E+00  0.9566E+02
     16.086  0.5276E+00  0.9566E+02
     16.094  0.1098E+01  0.9567E+02
     16.102  0.1542E+01  0.9568E+02
     16.110  0.1626E+01  0.9570E+02
     16.118  0.1345E+01  0.9571E+02
     16.126  0.1421E+01  0.9572E+02
     16.134  0.1347E+01  0.9573E+02
     16.142  0.7371E+00  0.9573E+02
     16.150  0.7053E+00  0.9574E+02
     16.158  0.6875E+00  0.9575E+02
     16.166  0.6857E+00  0.9575E+02
     16.174  0.6761E+00  0.9576E+02
     16.182  0.5764E+00  0.9576E+02
     16.190  0.1188E+01  0.9577E+02
     16.198  0.1658E+01  0.9578E+02
     16.206  0.1699E+01  0.9580E+02
     16.214  0.1497E+01  0.9581E+02
     16.222  0.6298E+00  0.9582E+02
     16.230  0.1215E+00  0.9582E+02
     16.238  0.3045E+00  0.9582E+02
     16.247  0.1077E+01  0.9583E+02
     16.255  0.1502E+01  0.9584E+02
     16.263  0.8471E+00  0.9585E+02
     16.271  0.1847E+00  0.9585E+02
     16.279  0.1531E-01  0.9585E+02
     16.287  0.2777E-01  0.9585E+02
     16.295  0.2046E+00  0.9585E+02
     16.303  0.5828E+00  0.9585E+02
     16.311  0.7860E+00  0.9586E+02
     16.319  0.6025E+00  0.9587E+02
     16.327  0.6194E+00  0.9587E+02
     16.335  0.1459E+01  0.9588E+02
     16.343  0.1552E+01  0.9589E+02
     16.351  0.8993E+00  0.9590E+02
     16.359  0.1097E+01  0.9591E+02
     16.367  0.1094E+01  0.9592E+02
     16.375  0.9503E+00  0.9593E+02
     16.383  0.1061E+01  0.9594E+02
     16.391  0.7134E+00  0.9594E+02
     16.399  0.2259E+00  0.9594E+02
     16.407  0.3343E+00  0.9595E+02
     16.415  0.1155E+01  0.9595E+02
     16.423  0.1573E+01  0.9597E+02
     16.431  0.1130E+01  0.9598E+02
     16.439  0.5987E+00  0.9598E+02
     16.447  0.4061E+00  0.9598E+02
     16.455  0.2643E+00  0.9599E+02
     16.463  0.8228E-01  0.9599E+02
     16.471  0.1776E+00  0.9599E+02
     16.479  0.5628E+00  0.9599E+02
     16.487  0.5982E+00  0.9600E+02
     16.495  0.2076E+00  0.9600E+02
     16.503  0.2312E-01  0.9600E+02
     16.511  0.8045E-03  0.9600E+02
     16.519  0.8494E-05  0.9600E+02
     16.527  0.2655E-07  0.9600E+02
     16.535  0.2410E-10  0.9600E+02
     16.543  0.6237E-14  0.9600E+02
     16.551  0.0000E+00  0.9600E+02
     16.559  0.0000E+00  0.9600E+02
     16.567  0.0000E+00  0.9600E+02
     16.576  0.0000E+00  0.9600E+02
     16.584  0.0000E+00  0.9600E+02
     16.592  0.0000E+00  0.9600E+02
     16.600  0.0000E+00  0.9600E+02
     16.608  0.0000E+00  0.9600E+02
     16.616  0.0000E+00  0.9600E+02
     16.624  0.0000E+00  0.9600E+02
     16.632  0.0000E+00  0.9600E+02
     16.640  0.0000E+00  0.9600E+02
     16.648  0.0000E+00  0.9600E+02
     16.656  0.0000E+00  0.9600E+02
     16.664  0.0000E+00  0.9600E+02
     16.672  0.0000E+00  0.9600E+02
     16.680  0.0000E+00  0.9600E+02
     16.688  0.0000E+00  0.9600E+02
     16.696  0.0000E+00  0.9600E+02
     16.704  0.0000E+00  0.9600E+02
     16.712  0.0000E+00  0.9600E+02
     16.720  0.0000E+00  0.9600E+02
     16.728  0.0000E+00  0.9600E+02
     16.736  0.0000E+00  0.9600E+02
     16.744  0.0000E+00  0.9600E+02
     16.752  0.0000E+00  0.9600E+02
     16.760  0.0000E+00  0.9600E+02
     16.768  0.0000E+00  0.9600E+02
     16.776  0.0000E+00  0.9600E+02
     16.784  0.0000E+00  0.9600E+02
     16.792  0.0000E+00  0.9600E+02
     16.800  0.0000E+00  0.9600E+02
     16.808  0.0000E+00  0.9600E+02
     16.816  0.0000E+00  0.9600E+02
     16.824  0.0000E+00  0.9600E+02
     16.832  0.0000E+00  0.9600E+02
     16.840  0.0000E+00  0.9600E+02
     16.848  0.0000E+00  0.9600E+02
     16.856  0.0000E+00  0.9600E+02
     16.864  0.0000E+00  0.9600E+02
     16.872  0.0000E+00  0.9600E+02
     16.880  0.0000E+00  0.9600E+02
     16.888  0.0000E+00  0.9600E+02
     16.897  0.0000E+00  0.9600E+02
     16.905  0.0000E+00  0.9600E+02
     16.913  0.0000E+00  0.9600E+02
     16.921  0.0000E+00  0.9600E+02
     16.929  0.0000E+00  0.9600E+02
     16.937  0.0000E+00  0.9600E+02
     16.945  0.0000E+00  0.9600E+02
     16.953  0.0000E+00  0.9600E+02
     16.961  0.0000E+00  0.9600E+02
     16.969  0.0000E+00  0.9600E+02
     16.977  0.0000E+00  0.9600E+02
     16.985  0.0000E+00  0.9600E+02
     16.993  0.0000E+00  0.9600E+02
     17.001  0.0000E+00  0.9600E+02
     17.009  0.0000E+00  0.9600E+02
     17.017  0.0000E+00  0.9600E+02
     17.025  0.0000E+00  0.9600E+02
     17.033  0.0000E+00  0.9600E+02
     17.041  0.0000E+00  0.9600E+02
     17.049  0.0000E+00  0.9600E+02
     17.057  0.0000E+00  0.9600E+02
     17.065  0.0000E+00  0.9600E+02
     17.073  0.0000E+00  0.9600E+02
     17.081  0.0000E+00  0.9600E+02
     17.089  0.0000E+00  0.9600E+02
     17.097  0.0000E+00  0.9600E+02
     17.105  0.0000E+00  0.9600E+02
     17.113  0.0000E+00  0.9600E+02
     17.121  0.0000E+00  0.9600E+02
     17.129  0.0000E+00  0.9600E+02
     17.137  0.0000E+00  0.9600E+02
     17.145  0.0000E+00  0.9600E+02
     17.153  0.0000E+00  0.9600E+02
     17.161  0.0000E+00  0.9600E+02
     17.169  0.0000E+00  0.9600E+02
     17.177  0.0000E+00  0.9600E+02
     17.185  0.0000E+00  0.9600E+02
     17.193  0.0000E+00  0.9600E+02
     17.201  0.0000E+00  0.9600E+02
     17.209  0.0000E+00  0.9600E+02
     17.217  0.0000E+00  0.9600E+02
     17.226  0.0000E+00  0.9600E+02
     17.234  0.0000E+00  0.9600E+02
     17.242  0.0000E+00  0.9600E+02
     17.250  0.0000E+00  0.9600E+02
     17.258  0.0000E+00  0.9600E+02
     17.266  0.0000E+00  0.9600E+02
     17.274  0.0000E+00  0.9600E+02
     17.282  0.0000E+00  0.9600E+02
     17.290  0.0000E+00  0.9600E+02
     17.298  0.0000E+00  0.9600E+02
     17.306  0.0000E+00  0.9600E+02
     17.314  0.0000E+00  0.9600E+02
     17.322  0.0000E+00  0.9600E+02
     17.330  0.0000E+00  0.9600E+02
     17.338  0.0000E+00  0.9600E+02
     17.346  0.0000E+00  0.9600E+02
     17.354  0.0000E+00  0.9600E+02
     17.362  0.0000E+00  0.9600E+02
     17.370  0.0000E+00  0.9600E+02
     17.378  0.0000E+00  0.9600E+02
     17.386  0.0000E+00  0.9600E+02
     17.394  0.0000E+00  0.9600E+02
     17.402  0.0000E+00  0.9600E+02
     17.410  0.0000E+00  0.9600E+02
     17.418  0.0000E+00  0.9600E+02
     17.426  0.0000E+00  0.9600E+02
     17.434  0.0000E+00  0.9600E+02
     17.442  0.0000E+00  0.9600E+02
     17.450  0.0000E+00  0.9600E+02
     17.458  0.0000E+00  0.9600E+02
     17.466  0.0000E+00  0.9600E+02
     17.474  0.0000E+00  0.9600E+02
     17.482  0.0000E+00  0.9600E+02
     17.490  0.0000E+00  0.9600E+02
     17.498  0.0000E+00  0.9600E+02
     17.506  0.0000E+00  0.9600E+02
     17.514  0.0000E+00  0.9600E+02
     17.522  0.0000E+00  0.9600E+02
     17.530  0.0000E+00  0.9600E+02
     17.538  0.0000E+00  0.9600E+02
     17.546  0.0000E+00  0.9600E+02
     17.555  0.0000E+00  0.9600E+02
     17.563  0.0000E+00  0.9600E+02
     17.571  0.0000E+00  0.9600E+02
     17.579  0.0000E+00  0.9600E+02
     17.587  0.0000E+00  0.9600E+02
     17.595  0.0000E+00  0.9600E+02
     17.603  0.0000E+00  0.9600E+02
     17.611  0.0000E+00  0.9600E+02
     17.619  0.0000E+00  0.9600E+02
     17.627  0.0000E+00  0.9600E+02
     17.635  0.0000E+00  0.9600E+02
     17.643  0.0000E+00  0.9600E+02
     17.651  0.0000E+00  0.9600E+02
     17.659  0.0000E+00  0.9600E+02
     17.667  0.0000E+00  0.9600E+02
     17.675  0.0000E+00  0.9600E+02
     17.683  0.0000E+00  0.9600E+02
     17.691  0.0000E+00  0.9600E+02
     17.699  0.0000E+00  0.9600E+02
     17.707  0.0000E+00  0.9600E+02
     17.715  0.0000E+00  0.9600E+02
     17.723  0.0000E+00  0.9600E+02
     17.731  0.0000E+00  0.9600E+02
     17.739  0.0000E+00  0.9600E+02
     17.747  0.0000E+00  0.9600E+02
     17.755  0.0000E+00  0.9600E+02
     17.763  0.0000E+00  0.9600E+02
     17.771  0.0000E+00  0.9600E+02
     17.779  0.0000E+00  0.9600E+02
     17.787  0.0000E+00  0.9600E+02
     17.795  0.0000E+00  0.9600E+02
     17.803  0.0000E+00  0.9600E+02
     17.811  0.0000E+00  0.9600E+02
     17.819  0.0000E+00  0.9600E+02
     17.827  0.0000E+00  0.9600E+02
     17.835  0.0000E+00  0.9600E+02
     17.843  0.0000E+00  0.9600E+02
     17.851  0.0000E+00  0.9600E+02
     17.859  0.0000E+00  0.9600E+02
     17.867  0.0000E+00  0.9600E+02
     17.875  0.0000E+00  0.9600E+02
     17.884  0.0000E+00  0.9600E+02
     17.892  0.0000E+00  0.9600E+02
     17.900  0.0000E+00  0.9600E+02
     17.908  0.0000E+00  0.9600E+02
     17.916  0.0000E+00  0.9600E+02
     17.924  0.0000E+00  0.9600E+02
     17.932  0.0000E+00  0.9600E+02
     17.940  0.0000E+00  0.9600E+02
