  14  14   0   0
  0.1021318E+02  0.5700971E-09  0.4044058E-09  0.6201871E-09  0.5000000E-15
  1.000000000000000E-004
  CAR 
 Dielectric                              
     26.18876217    -14.54344090 4000      1.91649873      1.00000000
    -14.543  0.0000E+00  0.0000E+00
    -14.533  0.0000E+00  0.0000E+00
    -14.523  0.0000E+00  0.0000E+00
    -14.513  0.0000E+00  0.0000E+00
    -14.503  0.0000E+00  0.0000E+00
    -14.493  0.0000E+00  0.0000E+00
    -14.482  0.0000E+00  0.0000E+00
    -14.472  0.0000E+00  0.0000E+00
    -14.462  0.0000E+00  0.0000E+00
    -14.452  0.0000E+00  0.0000E+00
    -14.442  0.0000E+00  0.0000E+00
    -14.431  0.0000E+00  0.0000E+00
    -14.421  0.0000E+00  0.0000E+00
    -14.411  0.0000E+00  0.0000E+00
    -14.401  0.0000E+00  0.0000E+00
    -14.391  0.0000E+00  0.0000E+00
    -14.380  0.0000E+00  0.0000E+00
    -14.370  0.0000E+00  0.0000E+00
    -14.360  0.0000E+00  0.0000E+00
    -14.350  0.0000E+00  0.0000E+00
    -14.340  0.0000E+00  0.0000E+00
    -14.330  0.0000E+00  0.0000E+00
    -14.319  0.0000E+00  0.0000E+00
    -14.309  0.0000E+00  0.0000E+00
    -14.299  0.0000E+00  0.0000E+00
    -14.289  0.0000E+00  0.0000E+00
    -14.279  0.0000E+00  0.0000E+00
    -14.268  0.0000E+00  0.0000E+00
    -14.258  0.0000E+00  0.0000E+00
    -14.248  0.0000E+00  0.0000E+00
    -14.238  0.0000E+00  0.0000E+00
    -14.228  0.0000E+00  0.0000E+00
    -14.218  0.0000E+00  0.0000E+00
    -14.207  0.0000E+00  0.0000E+00
    -14.197  0.0000E+00  0.0000E+00
    -14.187  0.0000E+00  0.0000E+00
    -14.177  0.0000E+00  0.0000E+00
    -14.167  0.0000E+00  0.0000E+00
    -14.156  0.0000E+00  0.0000E+00
    -14.146  0.0000E+00  0.0000E+00
    -14.136  0.0000E+00  0.0000E+00
    -14.126  0.0000E+00  0.0000E+00
    -14.116  0.0000E+00  0.0000E+00
    -14.105  0.0000E+00  0.0000E+00
    -14.095  0.0000E+00  0.0000E+00
    -14.085  0.0000E+00  0.0000E+00
    -14.075  0.0000E+00  0.0000E+00
    -14.065  0.0000E+00  0.0000E+00
    -14.055  0.0000E+00  0.0000E+00
    -14.044  0.0000E+00  0.0000E+00
    -14.034  0.0000E+00  0.0000E+00
    -14.024  0.0000E+00  0.0000E+00
    -14.014  0.0000E+00  0.0000E+00
    -14.004  0.0000E+00  0.0000E+00
    -13.993  0.0000E+00  0.0000E+00
    -13.983  0.0000E+00  0.0000E+00
    -13.973  0.0000E+00  0.0000E+00
    -13.963  0.0000E+00  0.0000E+00
    -13.953  0.0000E+00  0.0000E+00
    -13.942  0.0000E+00  0.0000E+00
    -13.932  0.0000E+00  0.0000E+00
    -13.922  0.0000E+00  0.0000E+00
    -13.912  0.0000E+00  0.0000E+00
    -13.902  0.0000E+00  0.0000E+00
    -13.892  0.0000E+00  0.0000E+00
    -13.881  0.0000E+00  0.0000E+00
    -13.871  0.0000E+00  0.0000E+00
    -13.861  0.0000E+00  0.0000E+00
    -13.851  0.0000E+00  0.0000E+00
    -13.841  0.0000E+00  0.0000E+00
    -13.830  0.0000E+00  0.0000E+00
    -13.820  0.0000E+00  0.0000E+00
    -13.810  0.0000E+00  0.0000E+00
    -13.800  0.0000E+00  0.0000E+00
    -13.790  0.0000E+00  0.0000E+00
    -13.780  0.0000E+00  0.0000E+00
    -13.769  0.0000E+00  0.0000E+00
    -13.759  0.0000E+00  0.0000E+00
    -13.749  0.0000E+00  0.0000E+00
    -13.739  0.0000E+00  0.0000E+00
    -13.729  0.0000E+00  0.0000E+00
    -13.718  0.0000E+00  0.0000E+00
    -13.708  0.0000E+00  0.0000E+00
    -13.698  0.0000E+00  0.0000E+00
    -13.688  0.0000E+00  0.0000E+00
    -13.678  0.0000E+00  0.0000E+00
    -13.667  0.0000E+00  0.0000E+00
    -13.657  0.0000E+00  0.0000E+00
    -13.647  0.0000E+00  0.0000E+00
    -13.637  0.0000E+00  0.0000E+00
    -13.627  0.0000E+00  0.0000E+00
    -13.617  0.0000E+00  0.0000E+00
    -13.606  0.0000E+00  0.0000E+00
    -13.596  0.0000E+00  0.0000E+00
    -13.586  0.0000E+00  0.0000E+00
    -13.576  0.0000E+00  0.0000E+00
    -13.566  0.0000E+00  0.0000E+00
    -13.555  0.0000E+00  0.0000E+00
    -13.545  0.0000E+00  0.0000E+00
    -13.535  0.0000E+00  0.0000E+00
    -13.525  0.0000E+00  0.0000E+00
    -13.515  0.0000E+00  0.0000E+00
    -13.505  0.0000E+00  0.0000E+00
    -13.494  0.0000E+00  0.0000E+00
    -13.484  0.0000E+00  0.0000E+00
    -13.474  0.0000E+00  0.0000E+00
    -13.464  0.0000E+00  0.0000E+00
    -13.454  0.0000E+00  0.0000E+00
    -13.443  0.0000E+00  0.0000E+00
    -13.433  0.0000E+00  0.0000E+00
    -13.423  0.0000E+00  0.0000E+00
    -13.413  0.0000E+00  0.0000E+00
    -13.403  0.0000E+00  0.0000E+00
    -13.392  0.0000E+00  0.0000E+00
    -13.382  0.0000E+00  0.0000E+00
    -13.372  0.0000E+00  0.0000E+00
    -13.362  0.0000E+00  0.0000E+00
    -13.352  0.0000E+00  0.0000E+00
    -13.342  0.0000E+00  0.0000E+00
    -13.331  0.0000E+00  0.0000E+00
    -13.321  0.0000E+00  0.0000E+00
    -13.311  0.0000E+00  0.0000E+00
    -13.301  0.0000E+00  0.0000E+00
    -13.291  0.0000E+00  0.0000E+00
    -13.280  0.0000E+00  0.0000E+00
    -13.270  0.0000E+00  0.0000E+00
    -13.260  0.0000E+00  0.0000E+00
    -13.250  0.0000E+00  0.0000E+00
    -13.240  0.0000E+00  0.0000E+00
    -13.229  0.0000E+00  0.0000E+00
    -13.219  0.0000E+00  0.0000E+00
    -13.209  0.0000E+00  0.0000E+00
    -13.199  0.0000E+00  0.0000E+00
    -13.189  0.0000E+00  0.0000E+00
    -13.179  0.0000E+00  0.0000E+00
    -13.168  0.0000E+00  0.0000E+00
    -13.158  0.0000E+00  0.0000E+00
    -13.148  0.0000E+00  0.0000E+00
    -13.138  0.0000E+00  0.0000E+00
    -13.128  0.0000E+00  0.0000E+00
    -13.117  0.0000E+00  0.0000E+00
    -13.107  0.0000E+00  0.0000E+00
    -13.097  0.0000E+00  0.0000E+00
    -13.087  0.0000E+00  0.0000E+00
    -13.077  0.0000E+00  0.0000E+00
    -13.067  0.0000E+00  0.0000E+00
    -13.056  0.0000E+00  0.0000E+00
    -13.046  0.0000E+00  0.0000E+00
    -13.036  0.0000E+00  0.0000E+00
    -13.026  0.0000E+00  0.0000E+00
    -13.016  0.0000E+00  0.0000E+00
    -13.005  0.0000E+00  0.0000E+00
    -12.995  0.0000E+00  0.0000E+00
    -12.985  0.0000E+00  0.0000E+00
    -12.975  0.0000E+00  0.0000E+00
    -12.965  0.0000E+00  0.0000E+00
    -12.954  0.0000E+00  0.0000E+00
    -12.944  0.0000E+00  0.0000E+00
    -12.934  0.0000E+00  0.0000E+00
    -12.924  0.0000E+00  0.0000E+00
    -12.914  0.0000E+00  0.0000E+00
    -12.904  0.0000E+00  0.0000E+00
    -12.893  0.0000E+00  0.0000E+00
    -12.883  0.0000E+00  0.0000E+00
    -12.873  0.0000E+00  0.0000E+00
    -12.863  0.0000E+00  0.0000E+00
    -12.853  0.0000E+00  0.0000E+00
    -12.842  0.0000E+00  0.0000E+00
    -12.832  0.0000E+00  0.0000E+00
    -12.822  0.0000E+00  0.0000E+00
    -12.812  0.0000E+00  0.0000E+00
    -12.802  0.0000E+00  0.0000E+00
    -12.792  0.0000E+00  0.0000E+00
    -12.781  0.0000E+00  0.0000E+00
    -12.771  0.0000E+00  0.0000E+00
    -12.761  0.0000E+00  0.0000E+00
    -12.751  0.3460E-16  0.3525E-18
    -12.741  0.1933E-11  0.1969E-13
    -12.730  0.1713E-07  0.1745E-09
    -12.720  0.2025E-04  0.2065E-06
    -12.710  0.3332E-02  0.3414E-04
    -12.700  0.8467E-01  0.8965E-03
    -12.690  0.4485E+00  0.5465E-02
    -12.679  0.8369E+00  0.1399E-01
    -12.669  0.7561E+00  0.2169E-01
    -12.659  0.1014E+01  0.3202E-01
    -12.649  0.1626E+01  0.4858E-01
    -12.639  0.1372E+01  0.6255E-01
    -12.629  0.1555E+01  0.7838E-01
    -12.618  0.2387E+01  0.1027E+00
    -12.608  0.2933E+01  0.1326E+00
    -12.598  0.1738E+01  0.1503E+00
    -12.588  0.2274E+01  0.1734E+00
    -12.578  0.2887E+01  0.2028E+00
    -12.567  0.2753E+01  0.2309E+00
    -12.557  0.3112E+01  0.2626E+00
    -12.547  0.3947E+01  0.3028E+00
    -12.537  0.2982E+01  0.3332E+00
    -12.527  0.3368E+01  0.3675E+00
    -12.517  0.3550E+01  0.4036E+00
    -12.506  0.2666E+01  0.4308E+00
    -12.496  0.3291E+01  0.4643E+00
    -12.486  0.3891E+01  0.5039E+00
    -12.476  0.3478E+01  0.5394E+00
    -12.466  0.3340E+01  0.5734E+00
    -12.455  0.3425E+01  0.6083E+00
    -12.445  0.3519E+01  0.6441E+00
    -12.435  0.3330E+01  0.6780E+00
    -12.425  0.4859E+01  0.7275E+00
    -12.415  0.4789E+01  0.7763E+00
    -12.404  0.5227E+01  0.8295E+00
    -12.394  0.4197E+01  0.8723E+00
    -12.384  0.3784E+01  0.9108E+00
    -12.374  0.5027E+01  0.9621E+00
    -12.364  0.5792E+01  0.1021E+01
    -12.354  0.5130E+01  0.1073E+01
    -12.343  0.4436E+01  0.1118E+01
    -12.333  0.3639E+01  0.1156E+01
    -12.323  0.2560E+01  0.1182E+01
    -12.313  0.3839E+01  0.1221E+01
    -12.303  0.3509E+01  0.1256E+01
    -12.292  0.3791E+01  0.1295E+01
    -12.282  0.3620E+01  0.1332E+01
    -12.272  0.2356E+01  0.1356E+01
    -12.262  0.2981E+01  0.1386E+01
    -12.252  0.3795E+01  0.1425E+01
    -12.241  0.4530E+01  0.1471E+01
    -12.231  0.4087E+01  0.1513E+01
    -12.221  0.2840E+01  0.1542E+01
    -12.211  0.2905E+01  0.1571E+01
    -12.201  0.3217E+01  0.1604E+01
    -12.191  0.2775E+01  0.1632E+01
    -12.180  0.2322E+01  0.1656E+01
    -12.170  0.2681E+01  0.1683E+01
    -12.160  0.2458E+01  0.1708E+01
    -12.150  0.2543E+01  0.1734E+01
    -12.140  0.2447E+01  0.1759E+01
    -12.129  0.1987E+01  0.1779E+01
    -12.119  0.1859E+01  0.1798E+01
    -12.109  0.1980E+01  0.1818E+01
    -12.099  0.2719E+01  0.1846E+01
    -12.089  0.3844E+01  0.1885E+01
    -12.079  0.3284E+01  0.1919E+01
    -12.068  0.3465E+01  0.1954E+01
    -12.058  0.3011E+01  0.1985E+01
    -12.048  0.1900E+01  0.2004E+01
    -12.038  0.1992E+01  0.2024E+01
    -12.028  0.3365E+01  0.2059E+01
    -12.017  0.3855E+01  0.2098E+01
    -12.007  0.2740E+01  0.2126E+01
    -11.997  0.1721E+01  0.2143E+01
    -11.987  0.1325E+01  0.2157E+01
    -11.977  0.2623E+01  0.2184E+01
    -11.966  0.3124E+01  0.2215E+01
    -11.956  0.1383E+01  0.2229E+01
    -11.946  0.9449E+00  0.2239E+01
    -11.936  0.1260E+01  0.2252E+01
    -11.926  0.2293E+01  0.2275E+01
    -11.916  0.4636E+01  0.2323E+01
    -11.905  0.4207E+01  0.2365E+01
    -11.895  0.2088E+01  0.2387E+01
    -11.885  0.1719E+01  0.2404E+01
    -11.875  0.2318E+01  0.2428E+01
    -11.865  0.3663E+01  0.2465E+01
    -11.854  0.3237E+01  0.2498E+01
    -11.844  0.2974E+01  0.2528E+01
    -11.834  0.3637E+01  0.2565E+01
    -11.824  0.2833E+01  0.2594E+01
    -11.814  0.1946E+01  0.2614E+01
    -11.804  0.2546E+01  0.2640E+01
    -11.793  0.2081E+01  0.2661E+01
    -11.783  0.1444E+01  0.2676E+01
    -11.773  0.1814E+01  0.2694E+01
    -11.763  0.2396E+01  0.2719E+01
    -11.753  0.2883E+01  0.2748E+01
    -11.742  0.3990E+01  0.2789E+01
    -11.732  0.3051E+01  0.2820E+01
    -11.722  0.2846E+01  0.2849E+01
    -11.712  0.3935E+01  0.2889E+01
    -11.702  0.4153E+01  0.2931E+01
    -11.691  0.4265E+01  0.2975E+01
    -11.681  0.5156E+01  0.3027E+01
    -11.671  0.3779E+01  0.3066E+01
    -11.661  0.3230E+01  0.3099E+01
    -11.651  0.3214E+01  0.3131E+01
    -11.641  0.3035E+01  0.3162E+01
    -11.630  0.3714E+01  0.3200E+01
    -11.620  0.2918E+01  0.3230E+01
    -11.610  0.1839E+01  0.3248E+01
    -11.600  0.3379E+01  0.3283E+01
    -11.590  0.4668E+01  0.3330E+01
    -11.579  0.4027E+01  0.3371E+01
    -11.569  0.3748E+01  0.3410E+01
    -11.559  0.2608E+01  0.3436E+01
    -11.549  0.3098E+01  0.3468E+01
    -11.539  0.3774E+01  0.3506E+01
    -11.529  0.4433E+01  0.3551E+01
    -11.518  0.4215E+01  0.3594E+01
    -11.508  0.2336E+01  0.3618E+01
    -11.498  0.2333E+01  0.3642E+01
    -11.488  0.3619E+01  0.3679E+01
    -11.478  0.4386E+01  0.3723E+01
    -11.467  0.2203E+01  0.3746E+01
    -11.457  0.1355E+01  0.3760E+01
    -11.447  0.1815E+01  0.3778E+01
    -11.437  0.2667E+01  0.3805E+01
    -11.427  0.2713E+01  0.3833E+01
    -11.416  0.1861E+01  0.3852E+01
    -11.406  0.1988E+01  0.3872E+01
    -11.396  0.1591E+01  0.3888E+01
    -11.386  0.9597E+00  0.3898E+01
    -11.376  0.1889E+01  0.3917E+01
    -11.366  0.1811E+01  0.3936E+01
    -11.355  0.1198E+01  0.3948E+01
    -11.345  0.1072E+01  0.3959E+01
    -11.335  0.5557E+00  0.3965E+01
    -11.325  0.6924E+00  0.3972E+01
    -11.315  0.5312E+00  0.3977E+01
    -11.304  0.8254E+00  0.3985E+01
    -11.294  0.7369E+00  0.3993E+01
    -11.284  0.4098E+00  0.3997E+01
    -11.274  0.2460E+00  0.4000E+01
    -11.264  0.3500E-01  0.4000E+01
    -11.253  0.7917E-03  0.4000E+01
    -11.243  0.2577E-05  0.4000E+01
    -11.233  0.1143E-08  0.4000E+01
    -11.223  0.6713E-13  0.4000E+01
    -11.213  0.0000E+00  0.4000E+01
    -11.203  0.0000E+00  0.4000E+01
    -11.192  0.0000E+00  0.4000E+01
    -11.182  0.0000E+00  0.4000E+01
    -11.172  0.0000E+00  0.4000E+01
    -11.162  0.0000E+00  0.4000E+01
    -11.152  0.0000E+00  0.4000E+01
    -11.141  0.0000E+00  0.4000E+01
    -11.131  0.0000E+00  0.4000E+01
    -11.121  0.0000E+00  0.4000E+01
    -11.111  0.0000E+00  0.4000E+01
    -11.101  0.0000E+00  0.4000E+01
    -11.091  0.0000E+00  0.4000E+01
    -11.080  0.0000E+00  0.4000E+01
    -11.070  0.0000E+00  0.4000E+01
    -11.060  0.0000E+00  0.4000E+01
    -11.050  0.0000E+00  0.4000E+01
    -11.040  0.0000E+00  0.4000E+01
    -11.029  0.0000E+00  0.4000E+01
    -11.019  0.0000E+00  0.4000E+01
    -11.009  0.0000E+00  0.4000E+01
    -10.999  0.0000E+00  0.4000E+01
    -10.989  0.0000E+00  0.4000E+01
    -10.978  0.0000E+00  0.4000E+01
    -10.968  0.0000E+00  0.4000E+01
    -10.958  0.0000E+00  0.4000E+01
    -10.948  0.0000E+00  0.4000E+01
    -10.938  0.0000E+00  0.4000E+01
    -10.928  0.0000E+00  0.4000E+01
    -10.917  0.0000E+00  0.4000E+01
    -10.907  0.0000E+00  0.4000E+01
    -10.897  0.0000E+00  0.4000E+01
    -10.887  0.0000E+00  0.4000E+01
    -10.877  0.0000E+00  0.4000E+01
    -10.866  0.0000E+00  0.4000E+01
    -10.856  0.0000E+00  0.4000E+01
    -10.846  0.0000E+00  0.4000E+01
    -10.836  0.0000E+00  0.4000E+01
    -10.826  0.0000E+00  0.4000E+01
    -10.816  0.0000E+00  0.4000E+01
    -10.805  0.0000E+00  0.4000E+01
    -10.795  0.0000E+00  0.4000E+01
    -10.785  0.0000E+00  0.4000E+01
    -10.775  0.0000E+00  0.4000E+01
    -10.765  0.0000E+00  0.4000E+01
    -10.754  0.0000E+00  0.4000E+01
    -10.744  0.0000E+00  0.4000E+01
    -10.734  0.0000E+00  0.4000E+01
    -10.724  0.0000E+00  0.4000E+01
    -10.714  0.0000E+00  0.4000E+01
    -10.703  0.0000E+00  0.4000E+01
    -10.693  0.0000E+00  0.4000E+01
    -10.683  0.0000E+00  0.4000E+01
    -10.673  0.0000E+00  0.4000E+01
    -10.663  0.0000E+00  0.4000E+01
    -10.653  0.0000E+00  0.4000E+01
    -10.642  0.0000E+00  0.4000E+01
    -10.632  0.0000E+00  0.4000E+01
    -10.622  0.0000E+00  0.4000E+01
    -10.612  0.0000E+00  0.4000E+01
    -10.602  0.0000E+00  0.4000E+01
    -10.591  0.0000E+00  0.4000E+01
    -10.581  0.0000E+00  0.4000E+01
    -10.571  0.0000E+00  0.4000E+01
    -10.561  0.0000E+00  0.4000E+01
    -10.551  0.0000E+00  0.4000E+01
    -10.541  0.0000E+00  0.4000E+01
    -10.530  0.0000E+00  0.4000E+01
    -10.520  0.0000E+00  0.4000E+01
    -10.510  0.0000E+00  0.4000E+01
    -10.500  0.0000E+00  0.4000E+01
    -10.490  0.0000E+00  0.4000E+01
    -10.479  0.0000E+00  0.4000E+01
    -10.469  0.0000E+00  0.4000E+01
    -10.459  0.0000E+00  0.4000E+01
    -10.449  0.0000E+00  0.4000E+01
    -10.439  0.0000E+00  0.4000E+01
    -10.428  0.0000E+00  0.4000E+01
    -10.418  0.0000E+00  0.4000E+01
    -10.408  0.0000E+00  0.4000E+01
    -10.398  0.0000E+00  0.4000E+01
    -10.388  0.0000E+00  0.4000E+01
    -10.378  0.0000E+00  0.4000E+01
    -10.367  0.0000E+00  0.4000E+01
    -10.357  0.0000E+00  0.4000E+01
    -10.347  0.0000E+00  0.4000E+01
    -10.337  0.0000E+00  0.4000E+01
    -10.327  0.0000E+00  0.4000E+01
    -10.316  0.0000E+00  0.4000E+01
    -10.306  0.0000E+00  0.4000E+01
    -10.296  0.0000E+00  0.4000E+01
    -10.286  0.0000E+00  0.4000E+01
    -10.276  0.0000E+00  0.4000E+01
    -10.265  0.0000E+00  0.4000E+01
    -10.255  0.0000E+00  0.4000E+01
    -10.245  0.0000E+00  0.4000E+01
    -10.235  0.0000E+00  0.4000E+01
    -10.225  0.0000E+00  0.4000E+01
    -10.215  0.0000E+00  0.4000E+01
    -10.204  0.0000E+00  0.4000E+01
    -10.194  0.0000E+00  0.4000E+01
    -10.184  0.0000E+00  0.4000E+01
    -10.174  0.0000E+00  0.4000E+01
    -10.164  0.0000E+00  0.4000E+01
    -10.153  0.0000E+00  0.4000E+01
    -10.143  0.0000E+00  0.4000E+01
    -10.133  0.0000E+00  0.4000E+01
    -10.123  0.0000E+00  0.4000E+01
    -10.113  0.0000E+00  0.4000E+01
    -10.103  0.0000E+00  0.4000E+01
    -10.092  0.0000E+00  0.4000E+01
    -10.082  0.0000E+00  0.4000E+01
    -10.072  0.0000E+00  0.4000E+01
    -10.062  0.0000E+00  0.4000E+01
    -10.052  0.0000E+00  0.4000E+01
    -10.041  0.0000E+00  0.4000E+01
    -10.031  0.0000E+00  0.4000E+01
    -10.021  0.0000E+00  0.4000E+01
    -10.011  0.0000E+00  0.4000E+01
    -10.001  0.0000E+00  0.4000E+01
     -9.990  0.0000E+00  0.4000E+01
     -9.980  0.0000E+00  0.4000E+01
     -9.970  0.0000E+00  0.4000E+01
     -9.960  0.0000E+00  0.4000E+01
     -9.950  0.0000E+00  0.4000E+01
     -9.940  0.0000E+00  0.4000E+01
     -9.929  0.0000E+00  0.4000E+01
     -9.919  0.0000E+00  0.4000E+01
     -9.909  0.0000E+00  0.4000E+01
     -9.899  0.0000E+00  0.4000E+01
     -9.889  0.0000E+00  0.4000E+01
     -9.878  0.0000E+00  0.4000E+01
     -9.868  0.0000E+00  0.4000E+01
     -9.858  0.0000E+00  0.4000E+01
     -9.848  0.0000E+00  0.4000E+01
     -9.838  0.0000E+00  0.4000E+01
     -9.828  0.0000E+00  0.4000E+01
     -9.817  0.0000E+00  0.4000E+01
     -9.807  0.0000E+00  0.4000E+01
     -9.797  0.0000E+00  0.4000E+01
     -9.787  0.0000E+00  0.4000E+01
     -9.777  0.0000E+00  0.4000E+01
     -9.766  0.0000E+00  0.4000E+01
     -9.756  0.0000E+00  0.4000E+01
     -9.746  0.0000E+00  0.4000E+01
     -9.736  0.0000E+00  0.4000E+01
     -9.726  0.0000E+00  0.4000E+01
     -9.715  0.0000E+00  0.4000E+01
     -9.705  0.0000E+00  0.4000E+01
     -9.695  0.0000E+00  0.4000E+01
     -9.685  0.0000E+00  0.4000E+01
     -9.675  0.0000E+00  0.4000E+01
     -9.665  0.0000E+00  0.4000E+01
     -9.654  0.0000E+00  0.4000E+01
     -9.644  0.0000E+00  0.4000E+01
     -9.634  0.0000E+00  0.4000E+01
     -9.624  0.0000E+00  0.4000E+01
     -9.614  0.0000E+00  0.4000E+01
     -9.603  0.0000E+00  0.4000E+01
     -9.593  0.0000E+00  0.4000E+01
     -9.583  0.0000E+00  0.4000E+01
     -9.573  0.0000E+00  0.4000E+01
     -9.563  0.0000E+00  0.4000E+01
     -9.552  0.0000E+00  0.4000E+01
     -9.542  0.0000E+00  0.4000E+01
     -9.532  0.0000E+00  0.4000E+01
     -9.522  0.0000E+00  0.4000E+01
     -9.512  0.0000E+00  0.4000E+01
     -9.502  0.0000E+00  0.4000E+01
     -9.491  0.0000E+00  0.4000E+01
     -9.481  0.0000E+00  0.4000E+01
     -9.471  0.0000E+00  0.4000E+01
     -9.461  0.0000E+00  0.4000E+01
     -9.451  0.0000E+00  0.4000E+01
     -9.440  0.0000E+00  0.4000E+01
     -9.430  0.0000E+00  0.4000E+01
     -9.420  0.0000E+00  0.4000E+01
     -9.410  0.0000E+00  0.4000E+01
     -9.400  0.0000E+00  0.4000E+01
     -9.390  0.0000E+00  0.4000E+01
     -9.379  0.0000E+00  0.4000E+01
     -9.369  0.0000E+00  0.4000E+01
     -9.359  0.0000E+00  0.4000E+01
     -9.349  0.0000E+00  0.4000E+01
     -9.339  0.0000E+00  0.4000E+01
     -9.328  0.0000E+00  0.4000E+01
     -9.318  0.0000E+00  0.4000E+01
     -9.308  0.0000E+00  0.4000E+01
     -9.298  0.0000E+00  0.4000E+01
     -9.288  0.0000E+00  0.4000E+01
     -9.277  0.0000E+00  0.4000E+01
     -9.267  0.0000E+00  0.4000E+01
     -9.257  0.0000E+00  0.4000E+01
     -9.247  0.0000E+00  0.4000E+01
     -9.237  0.0000E+00  0.4000E+01
     -9.227  0.0000E+00  0.4000E+01
     -9.216  0.0000E+00  0.4000E+01
     -9.206  0.0000E+00  0.4000E+01
     -9.196  0.0000E+00  0.4000E+01
     -9.186  0.0000E+00  0.4000E+01
     -9.176  0.0000E+00  0.4000E+01
     -9.165  0.0000E+00  0.4000E+01
     -9.155  0.0000E+00  0.4000E+01
     -9.145  0.0000E+00  0.4000E+01
     -9.135  0.0000E+00  0.4000E+01
     -9.125  0.0000E+00  0.4000E+01
     -9.115  0.0000E+00  0.4000E+01
     -9.104  0.0000E+00  0.4000E+01
     -9.094  0.0000E+00  0.4000E+01
     -9.084  0.0000E+00  0.4000E+01
     -9.074  0.0000E+00  0.4000E+01
     -9.064  0.0000E+00  0.4000E+01
     -9.053  0.0000E+00  0.4000E+01
     -9.043  0.0000E+00  0.4000E+01
     -9.033  0.0000E+00  0.4000E+01
     -9.023  0.0000E+00  0.4000E+01
     -9.013  0.0000E+00  0.4000E+01
     -9.002  0.0000E+00  0.4000E+01
     -8.992  0.0000E+00  0.4000E+01
     -8.982  0.0000E+00  0.4000E+01
     -8.972  0.0000E+00  0.4000E+01
     -8.962  0.0000E+00  0.4000E+01
     -8.952  0.0000E+00  0.4000E+01
     -8.941  0.0000E+00  0.4000E+01
     -8.931  0.0000E+00  0.4000E+01
     -8.921  0.0000E+00  0.4000E+01
     -8.911  0.0000E+00  0.4000E+01
     -8.901  0.0000E+00  0.4000E+01
     -8.890  0.0000E+00  0.4000E+01
     -8.880  0.6921E-16  0.4000E+01
     -8.870  0.5845E-11  0.4000E+01
     -8.860  0.4765E-07  0.4000E+01
     -8.850  0.5185E-04  0.4000E+01
     -8.840  0.7813E-02  0.4000E+01
     -8.829  0.1741E+00  0.4002E+01
     -8.819  0.6328E+00  0.4008E+01
     -8.809  0.5415E+00  0.4014E+01
     -8.799  0.1002E+01  0.4024E+01
     -8.789  0.1223E+01  0.4036E+01
     -8.778  0.1342E+01  0.4050E+01
     -8.768  0.2628E+01  0.4077E+01
     -8.758  0.2217E+01  0.4099E+01
     -8.748  0.2452E+01  0.4124E+01
     -8.738  0.1760E+01  0.4142E+01
     -8.727  0.8939E+00  0.4151E+01
     -8.717  0.1505E+01  0.4167E+01
     -8.707  0.4486E+01  0.4213E+01
     -8.697  0.4462E+01  0.4258E+01
     -8.687  0.4529E+01  0.4304E+01
     -8.677  0.3520E+01  0.4340E+01
     -8.666  0.2259E+01  0.4363E+01
     -8.656  0.5063E+01  0.4415E+01
     -8.646  0.7480E+01  0.4491E+01
     -8.636  0.6434E+01  0.4556E+01
     -8.626  0.6662E+01  0.4624E+01
     -8.615  0.5099E+01  0.4676E+01
     -8.605  0.6705E+01  0.4744E+01
     -8.595  0.8291E+01  0.4829E+01
     -8.585  0.6801E+01  0.4898E+01
     -8.575  0.7007E+01  0.4969E+01
     -8.564  0.6734E+01  0.5038E+01
     -8.554  0.7432E+01  0.5114E+01
     -8.544  0.6660E+01  0.5182E+01
     -8.534  0.5929E+01  0.5242E+01
     -8.524  0.6320E+01  0.5306E+01
     -8.514  0.6841E+01  0.5376E+01
     -8.503  0.5990E+01  0.5437E+01
     -8.493  0.5430E+01  0.5492E+01
     -8.483  0.7344E+01  0.5567E+01
     -8.473  0.8218E+01  0.5651E+01
     -8.463  0.8174E+01  0.5734E+01
     -8.452  0.6897E+01  0.5804E+01
     -8.442  0.5936E+01  0.5865E+01
     -8.432  0.5058E+01  0.5916E+01
     -8.422  0.5608E+01  0.5973E+01
     -8.412  0.5146E+01  0.6026E+01
     -8.402  0.3993E+01  0.6067E+01
     -8.391  0.3361E+01  0.6101E+01
     -8.381  0.2649E+01  0.6128E+01
     -8.371  0.3831E+01  0.6167E+01
     -8.361  0.5435E+01  0.6222E+01
     -8.351  0.4610E+01  0.6269E+01
     -8.340  0.3701E+01  0.6307E+01
     -8.330  0.4730E+01  0.6355E+01
     -8.320  0.4586E+01  0.6402E+01
     -8.310  0.4389E+01  0.6446E+01
     -8.300  0.5208E+01  0.6499E+01
     -8.289  0.4961E+01  0.6550E+01
     -8.279  0.4851E+01  0.6599E+01
     -8.269  0.4653E+01  0.6647E+01
     -8.259  0.5589E+01  0.6704E+01
     -8.249  0.5252E+01  0.6757E+01
     -8.239  0.5703E+01  0.6815E+01
     -8.228  0.5835E+01  0.6875E+01
     -8.218  0.4618E+01  0.6922E+01
     -8.208  0.4484E+01  0.6967E+01
     -8.198  0.4661E+01  0.7015E+01
     -8.188  0.4348E+01  0.7059E+01
     -8.177  0.3784E+01  0.7098E+01
     -8.167  0.4474E+01  0.7143E+01
     -8.157  0.4054E+01  0.7185E+01
     -8.147  0.4115E+01  0.7226E+01
     -8.137  0.3602E+01  0.7263E+01
     -8.127  0.4396E+01  0.7308E+01
     -8.116  0.5434E+01  0.7363E+01
     -8.106  0.4785E+01  0.7412E+01
     -8.096  0.5888E+01  0.7472E+01
     -8.086  0.5382E+01  0.7527E+01
     -8.076  0.2545E+01  0.7553E+01
     -8.065  0.3150E+01  0.7585E+01
     -8.055  0.5242E+01  0.7638E+01
     -8.045  0.4053E+01  0.7679E+01
     -8.035  0.2068E+01  0.7701E+01
     -8.025  0.1979E+01  0.7721E+01
     -8.014  0.2584E+01  0.7747E+01
     -8.004  0.2817E+01  0.7776E+01
     -7.994  0.2686E+01  0.7803E+01
     -7.984  0.2378E+01  0.7827E+01
     -7.974  0.7738E+00  0.7835E+01
     -7.964  0.7917E+00  0.7843E+01
     -7.953  0.2021E+01  0.7864E+01
     -7.943  0.1721E+01  0.7881E+01
     -7.933  0.5691E+00  0.7887E+01
     -7.923  0.9498E+00  0.7897E+01
     -7.913  0.1951E+01  0.7917E+01
     -7.902  0.1644E+01  0.7933E+01
     -7.892  0.9641E+00  0.7943E+01
     -7.882  0.1171E+01  0.7955E+01
     -7.872  0.7741E+00  0.7963E+01
     -7.862  0.7046E+00  0.7970E+01
     -7.852  0.3867E+00  0.7974E+01
     -7.841  0.4734E-01  0.7975E+01
     -7.831  0.1754E+00  0.7976E+01
     -7.821  0.6317E+00  0.7983E+01
     -7.811  0.4798E+00  0.7988E+01
     -7.801  0.5641E+00  0.7994E+01
     -7.790  0.5378E+00  0.7999E+01
     -7.780  0.9469E-01  0.8000E+01
     -7.770  0.2642E-02  0.8000E+01
     -7.760  0.1069E-04  0.8000E+01
     -7.750  0.5919E-08  0.8000E+01
     -7.739  0.4346E-12  0.8000E+01
     -7.729  0.0000E+00  0.8000E+01
     -7.719  0.0000E+00  0.8000E+01
     -7.709  0.0000E+00  0.8000E+01
     -7.699  0.0000E+00  0.8000E+01
     -7.689  0.0000E+00  0.8000E+01
     -7.678  0.0000E+00  0.8000E+01
     -7.668  0.0000E+00  0.8000E+01
     -7.658  0.0000E+00  0.8000E+01
     -7.648  0.0000E+00  0.8000E+01
     -7.638  0.0000E+00  0.8000E+01
     -7.627  0.0000E+00  0.8000E+01
     -7.617  0.0000E+00  0.8000E+01
     -7.607  0.0000E+00  0.8000E+01
     -7.597  0.0000E+00  0.8000E+01
     -7.587  0.0000E+00  0.8000E+01
     -7.576  0.0000E+00  0.8000E+01
     -7.566  0.0000E+00  0.8000E+01
     -7.556  0.0000E+00  0.8000E+01
     -7.546  0.0000E+00  0.8000E+01
     -7.536  0.0000E+00  0.8000E+01
     -7.526  0.0000E+00  0.8000E+01
     -7.515  0.0000E+00  0.8000E+01
     -7.505  0.0000E+00  0.8000E+01
     -7.495  0.0000E+00  0.8000E+01
     -7.485  0.0000E+00  0.8000E+01
     -7.475  0.0000E+00  0.8000E+01
     -7.464  0.0000E+00  0.8000E+01
     -7.454  0.0000E+00  0.8000E+01
     -7.444  0.0000E+00  0.8000E+01
     -7.434  0.0000E+00  0.8000E+01
     -7.424  0.0000E+00  0.8000E+01
     -7.414  0.0000E+00  0.8000E+01
     -7.403  0.0000E+00  0.8000E+01
     -7.393  0.0000E+00  0.8000E+01
     -7.383  0.0000E+00  0.8000E+01
     -7.373  0.0000E+00  0.8000E+01
     -7.363  0.0000E+00  0.8000E+01
     -7.352  0.0000E+00  0.8000E+01
     -7.342  0.0000E+00  0.8000E+01
     -7.332  0.0000E+00  0.8000E+01
     -7.322  0.0000E+00  0.8000E+01
     -7.312  0.0000E+00  0.8000E+01
     -7.301  0.0000E+00  0.8000E+01
     -7.291  0.0000E+00  0.8000E+01
     -7.281  0.0000E+00  0.8000E+01
     -7.271  0.0000E+00  0.8000E+01
     -7.261  0.0000E+00  0.8000E+01
     -7.251  0.0000E+00  0.8000E+01
     -7.240  0.0000E+00  0.8000E+01
     -7.230  0.0000E+00  0.8000E+01
     -7.220  0.0000E+00  0.8000E+01
     -7.210  0.0000E+00  0.8000E+01
     -7.200  0.0000E+00  0.8000E+01
     -7.189  0.0000E+00  0.8000E+01
     -7.179  0.0000E+00  0.8000E+01
     -7.169  0.0000E+00  0.8000E+01
     -7.159  0.0000E+00  0.8000E+01
     -7.149  0.0000E+00  0.8000E+01
     -7.139  0.0000E+00  0.8000E+01
     -7.128  0.0000E+00  0.8000E+01
     -7.118  0.0000E+00  0.8000E+01
     -7.108  0.0000E+00  0.8000E+01
     -7.098  0.0000E+00  0.8000E+01
     -7.088  0.0000E+00  0.8000E+01
     -7.077  0.0000E+00  0.8000E+01
     -7.067  0.0000E+00  0.8000E+01
     -7.057  0.0000E+00  0.8000E+01
     -7.047  0.0000E+00  0.8000E+01
     -7.037  0.0000E+00  0.8000E+01
     -7.026  0.0000E+00  0.8000E+01
     -7.016  0.0000E+00  0.8000E+01
     -7.006  0.0000E+00  0.8000E+01
     -6.996  0.0000E+00  0.8000E+01
     -6.986  0.0000E+00  0.8000E+01
     -6.976  0.0000E+00  0.8000E+01
     -6.965  0.1384E-15  0.8000E+01
     -6.955  0.7491E-11  0.8000E+01
     -6.945  0.5808E-07  0.8000E+01
     -6.935  0.6013E-04  0.8000E+01
     -6.925  0.8634E-02  0.8000E+01
     -6.914  0.1837E+00  0.8002E+01
     -6.904  0.6352E+00  0.8008E+01
     -6.894  0.4050E+00  0.8013E+01
     -6.884  0.3493E+00  0.8016E+01
     -6.874  0.6566E+00  0.8023E+01
     -6.864  0.2404E+00  0.8025E+01
     -6.853  0.1470E-01  0.8025E+01
     -6.843  0.2000E-01  0.8026E+01
     -6.833  0.2811E+00  0.8028E+01
     -6.823  0.6589E+00  0.8035E+01
     -6.813  0.2683E+00  0.8038E+01
     -6.802  0.1807E-01  0.8038E+01
     -6.792  0.1875E-03  0.8038E+01
     -6.782  0.1374E-02  0.8038E+01
     -6.772  0.6422E-01  0.8039E+01
     -6.762  0.4689E+00  0.8044E+01
     -6.751  0.5833E+00  0.8049E+01
     -6.741  0.1550E+00  0.8051E+01
     -6.731  0.3455E+00  0.8055E+01
     -6.721  0.6514E+00  0.8061E+01
     -6.711  0.3029E+00  0.8064E+01
     -6.701  0.5834E+00  0.8070E+01
     -6.690  0.9540E+00  0.8080E+01
     -6.680  0.7104E+00  0.8087E+01
     -6.670  0.1642E+00  0.8089E+01
     -6.660  0.1650E+00  0.8091E+01
     -6.650  0.9829E+00  0.8101E+01
     -6.639  0.1144E+01  0.8112E+01
     -6.629  0.7064E+00  0.8119E+01
     -6.619  0.1259E+01  0.8132E+01
     -6.609  0.6648E+00  0.8139E+01
     -6.599  0.1761E+00  0.8141E+01
     -6.588  0.8618E+00  0.8150E+01
     -6.578  0.1488E+01  0.8165E+01
     -6.568  0.1480E+01  0.8180E+01
     -6.558  0.9235E+00  0.8189E+01
     -6.548  0.3085E+00  0.8192E+01
     -6.538  0.6361E+00  0.8199E+01
     -6.527  0.4392E+00  0.8203E+01
     -6.517  0.5500E+00  0.8209E+01
     -6.507  0.1140E+01  0.8221E+01
     -6.497  0.8668E+00  0.8229E+01
     -6.487  0.7313E+00  0.8237E+01
     -6.476  0.3988E+00  0.8241E+01
     -6.466  0.1212E+00  0.8242E+01
     -6.456  0.7360E+00  0.8250E+01
     -6.446  0.1415E+01  0.8264E+01
     -6.436  0.1323E+01  0.8277E+01
     -6.426  0.1865E+01  0.8296E+01
     -6.415  0.2420E+01  0.8321E+01
     -6.405  0.1390E+01  0.8335E+01
     -6.395  0.7554E+00  0.8343E+01
     -6.385  0.1100E+01  0.8354E+01
     -6.375  0.1872E+01  0.8373E+01
     -6.364  0.2446E+01  0.8398E+01
     -6.354  0.2130E+01  0.8420E+01
     -6.344  0.1380E+01  0.8434E+01
     -6.334  0.8343E+00  0.8442E+01
     -6.324  0.4620E+00  0.8447E+01
     -6.313  0.1566E+01  0.8463E+01
     -6.303  0.1713E+01  0.8481E+01
     -6.293  0.1492E+01  0.8496E+01
     -6.283  0.3041E+01  0.8527E+01
     -6.273  0.2426E+01  0.8551E+01
     -6.263  0.2144E+01  0.8573E+01
     -6.252  0.2894E+01  0.8603E+01
     -6.242  0.2724E+01  0.8630E+01
     -6.232  0.2252E+01  0.8653E+01
     -6.222  0.2742E+01  0.8681E+01
     -6.212  0.2959E+01  0.8711E+01
     -6.201  0.2124E+01  0.8733E+01
     -6.191  0.1960E+01  0.8753E+01
     -6.181  0.2637E+01  0.8780E+01
     -6.171  0.3740E+01  0.8818E+01
     -6.161  0.3950E+01  0.8858E+01
     -6.151  0.3859E+01  0.8898E+01
     -6.140  0.5547E+01  0.8954E+01
     -6.130  0.6419E+01  0.9019E+01
     -6.120  0.3955E+01  0.9060E+01
     -6.110  0.2719E+01  0.9087E+01
     -6.100  0.3944E+01  0.9128E+01
     -6.089  0.3980E+01  0.9168E+01
     -6.079  0.3277E+01  0.9201E+01
     -6.069  0.3737E+01  0.9240E+01
     -6.059  0.3874E+01  0.9279E+01
     -6.049  0.3687E+01  0.9317E+01
     -6.038  0.3202E+01  0.9349E+01
     -6.028  0.3053E+01  0.9380E+01
     -6.018  0.2999E+01  0.9411E+01
     -6.008  0.3238E+01  0.9444E+01
     -5.998  0.3538E+01  0.9480E+01
     -5.988  0.3860E+01  0.9519E+01
     -5.977  0.3953E+01  0.9559E+01
     -5.967  0.5238E+01  0.9613E+01
     -5.957  0.5791E+01  0.9672E+01
     -5.947  0.5690E+01  0.9730E+01
     -5.937  0.4673E+01  0.9777E+01
     -5.926  0.3668E+01  0.9815E+01
     -5.916  0.3821E+01  0.9854E+01
     -5.906  0.4000E+01  0.9894E+01
     -5.896  0.5215E+01  0.9947E+01
     -5.886  0.4459E+01  0.9993E+01
     -5.875  0.2775E+01  0.1002E+02
     -5.865  0.3141E+01  0.1005E+02
     -5.855  0.3597E+01  0.1009E+02
     -5.845  0.3322E+01  0.1012E+02
     -5.835  0.3309E+01  0.1016E+02
     -5.825  0.2954E+01  0.1019E+02
     -5.814  0.4304E+01  0.1023E+02
     -5.804  0.5509E+01  0.1029E+02
     -5.794  0.6290E+01  0.1035E+02
     -5.784  0.6133E+01  0.1041E+02
     -5.774  0.5255E+01  0.1047E+02
     -5.763  0.3502E+01  0.1050E+02
     -5.753  0.2922E+01  0.1053E+02
     -5.743  0.3832E+01  0.1057E+02
     -5.733  0.2511E+01  0.1060E+02
     -5.723  0.2316E+01  0.1062E+02
     -5.713  0.3472E+01  0.1066E+02
     -5.702  0.3866E+01  0.1070E+02
     -5.692  0.3240E+01  0.1073E+02
     -5.682  0.3814E+01  0.1077E+02
     -5.672  0.5830E+01  0.1083E+02
     -5.662  0.4535E+01  0.1087E+02
     -5.651  0.3151E+01  0.1091E+02
     -5.641  0.3799E+01  0.1094E+02
     -5.631  0.4232E+01  0.1099E+02
     -5.621  0.2877E+01  0.1102E+02
     -5.611  0.4273E+01  0.1106E+02
     -5.600  0.5940E+01  0.1112E+02
     -5.590  0.4003E+01  0.1116E+02
     -5.580  0.4055E+01  0.1120E+02
     -5.570  0.5162E+01  0.1126E+02
     -5.560  0.3895E+01  0.1129E+02
     -5.550  0.2379E+01  0.1132E+02
     -5.539  0.1833E+01  0.1134E+02
     -5.529  0.3228E+01  0.1137E+02
     -5.519  0.5602E+01  0.1143E+02
     -5.509  0.7487E+01  0.1150E+02
     -5.499  0.6722E+01  0.1157E+02
     -5.488  0.4480E+01  0.1162E+02
     -5.478  0.3439E+01  0.1165E+02
     -5.468  0.2952E+01  0.1168E+02
     -5.458  0.4491E+01  0.1173E+02
     -5.448  0.4874E+01  0.1178E+02
     -5.438  0.4162E+01  0.1182E+02
     -5.427  0.5035E+01  0.1187E+02
     -5.417  0.6162E+01  0.1193E+02
     -5.407  0.6188E+01  0.1200E+02
     -5.397  0.4410E+01  0.1204E+02
     -5.387  0.2730E+01  0.1207E+02
     -5.376  0.2805E+01  0.1210E+02
     -5.366  0.4629E+01  0.1215E+02
     -5.356  0.5453E+01  0.1220E+02
     -5.346  0.4705E+01  0.1225E+02
     -5.336  0.6084E+01  0.1231E+02
     -5.325  0.4716E+01  0.1236E+02
     -5.315  0.4182E+01  0.1240E+02
     -5.305  0.5062E+01  0.1245E+02
     -5.295  0.4744E+01  0.1250E+02
     -5.285  0.4597E+01  0.1255E+02
     -5.275  0.4693E+01  0.1260E+02
     -5.264  0.5310E+01  0.1265E+02
     -5.254  0.5208E+01  0.1270E+02
     -5.244  0.3802E+01  0.1274E+02
     -5.234  0.3666E+01  0.1278E+02
     -5.224  0.3315E+01  0.1281E+02
     -5.213  0.3851E+01  0.1285E+02
     -5.203  0.5559E+01  0.1291E+02
     -5.193  0.4714E+01  0.1296E+02
     -5.183  0.3526E+01  0.1299E+02
     -5.173  0.3975E+01  0.1303E+02
     -5.163  0.4436E+01  0.1308E+02
     -5.152  0.4166E+01  0.1312E+02
     -5.142  0.4210E+01  0.1316E+02
     -5.132  0.3885E+01  0.1320E+02
     -5.122  0.4607E+01  0.1325E+02
     -5.112  0.4815E+01  0.1330E+02
     -5.101  0.3630E+01  0.1334E+02
     -5.091  0.1961E+01  0.1336E+02
     -5.081  0.2777E+01  0.1339E+02
     -5.071  0.3861E+01  0.1342E+02
     -5.061  0.2897E+01  0.1345E+02
     -5.050  0.3275E+01  0.1349E+02
     -5.040  0.2436E+01  0.1351E+02
     -5.030  0.2256E+01  0.1354E+02
     -5.020  0.3538E+01  0.1357E+02
     -5.010  0.4130E+01  0.1361E+02
     -5.000  0.3713E+01  0.1365E+02
     -4.989  0.2988E+01  0.1368E+02
     -4.979  0.1872E+01  0.1370E+02
     -4.969  0.2227E+01  0.1372E+02
     -4.959  0.2098E+01  0.1374E+02
     -4.949  0.2158E+01  0.1377E+02
     -4.938  0.2513E+01  0.1379E+02
     -4.928  0.5517E+01  0.1385E+02
     -4.918  0.5805E+01  0.1391E+02
     -4.908  0.3591E+01  0.1394E+02
     -4.898  0.3118E+01  0.1398E+02
     -4.887  0.2544E+01  0.1400E+02
     -4.877  0.2718E+01  0.1403E+02
     -4.867  0.2872E+01  0.1406E+02
     -4.857  0.1008E+01  0.1407E+02
     -4.847  0.2482E+00  0.1407E+02
     -4.837  0.1186E+01  0.1408E+02
     -4.826  0.2490E+01  0.1411E+02
     -4.816  0.1681E+01  0.1413E+02
     -4.806  0.1709E+01  0.1414E+02
     -4.796  0.2846E+01  0.1417E+02
     -4.786  0.1775E+01  0.1419E+02
     -4.775  0.2361E+01  0.1421E+02
     -4.765  0.4795E+01  0.1426E+02
     -4.755  0.6014E+01  0.1432E+02
     -4.745  0.4732E+01  0.1437E+02
     -4.735  0.1826E+01  0.1439E+02
     -4.725  0.2605E+01  0.1442E+02
     -4.714  0.4272E+01  0.1446E+02
     -4.704  0.4304E+01  0.1451E+02
     -4.694  0.3125E+01  0.1454E+02
     -4.684  0.2095E+01  0.1456E+02
     -4.674  0.1596E+01  0.1458E+02
     -4.663  0.1822E+01  0.1459E+02
     -4.653  0.3018E+01  0.1462E+02
     -4.643  0.3359E+01  0.1466E+02
     -4.633  0.2989E+01  0.1469E+02
     -4.623  0.3788E+01  0.1473E+02
     -4.612  0.4555E+01  0.1477E+02
     -4.602  0.4694E+01  0.1482E+02
     -4.592  0.3969E+01  0.1486E+02
     -4.582  0.2752E+01  0.1489E+02
     -4.572  0.2865E+01  0.1492E+02
     -4.562  0.3533E+01  0.1496E+02
     -4.551  0.3592E+01  0.1499E+02
     -4.541  0.3320E+01  0.1503E+02
     -4.531  0.3183E+01  0.1506E+02
     -4.521  0.3512E+01  0.1509E+02
     -4.511  0.3172E+01  0.1513E+02
     -4.500  0.2046E+01  0.1515E+02
     -4.490  0.2983E+01  0.1518E+02
     -4.480  0.3510E+01  0.1521E+02
     -4.470  0.2774E+01  0.1524E+02
     -4.460  0.2917E+01  0.1527E+02
     -4.450  0.4001E+01  0.1531E+02
     -4.439  0.4351E+01  0.1536E+02
     -4.429  0.4523E+01  0.1540E+02
     -4.419  0.4392E+01  0.1545E+02
     -4.409  0.4639E+01  0.1549E+02
     -4.399  0.4239E+01  0.1554E+02
     -4.388  0.3166E+01  0.1557E+02
     -4.378  0.1386E+01  0.1558E+02
     -4.368  0.1971E+01  0.1560E+02
     -4.358  0.3467E+01  0.1564E+02
     -4.348  0.2460E+01  0.1566E+02
     -4.337  0.1631E+01  0.1568E+02
     -4.327  0.3183E+01  0.1571E+02
     -4.317  0.3249E+01  0.1575E+02
     -4.307  0.3502E+01  0.1578E+02
     -4.297  0.3339E+01  0.1582E+02
     -4.287  0.2677E+01  0.1584E+02
     -4.276  0.2326E+01  0.1587E+02
     -4.266  0.2206E+01  0.1589E+02
     -4.256  0.2396E+01  0.1591E+02
     -4.246  0.2361E+01  0.1594E+02
     -4.236  0.3084E+01  0.1597E+02
     -4.225  0.3799E+01  0.1601E+02
     -4.215  0.3210E+01  0.1604E+02
     -4.205  0.2537E+01  0.1607E+02
     -4.195  0.3604E+01  0.1610E+02
     -4.185  0.4706E+01  0.1615E+02
     -4.175  0.3689E+01  0.1619E+02
     -4.164  0.2419E+01  0.1621E+02
     -4.154  0.2206E+01  0.1624E+02
     -4.144  0.2864E+01  0.1627E+02
     -4.134  0.2858E+01  0.1629E+02
     -4.124  0.2959E+01  0.1632E+02
     -4.113  0.2151E+01  0.1635E+02
     -4.103  0.2843E+01  0.1638E+02
     -4.093  0.4091E+01  0.1642E+02
     -4.083  0.2616E+01  0.1644E+02
     -4.073  0.2770E+01  0.1647E+02
     -4.062  0.4032E+01  0.1651E+02
     -4.052  0.2463E+01  0.1654E+02
     -4.042  0.1728E+01  0.1656E+02
     -4.032  0.2280E+01  0.1658E+02
     -4.022  0.3147E+01  0.1661E+02
     -4.012  0.2983E+01  0.1664E+02
     -4.001  0.1959E+01  0.1666E+02
     -3.991  0.1693E+01  0.1668E+02
     -3.981  0.3076E+01  0.1671E+02
     -3.971  0.5010E+01  0.1676E+02
     -3.961  0.5744E+01  0.1682E+02
     -3.950  0.3767E+01  0.1686E+02
     -3.940  0.2042E+01  0.1688E+02
     -3.930  0.1793E+01  0.1690E+02
     -3.920  0.1722E+01  0.1691E+02
     -3.910  0.2534E+01  0.1694E+02
     -3.899  0.3214E+01  0.1697E+02
     -3.889  0.3410E+01  0.1701E+02
     -3.879  0.2083E+01  0.1703E+02
     -3.869  0.2418E+01  0.1705E+02
     -3.859  0.2217E+01  0.1708E+02
     -3.849  0.1569E+01  0.1709E+02
     -3.838  0.2097E+01  0.1711E+02
     -3.828  0.3404E+01  0.1715E+02
     -3.818  0.4663E+01  0.1720E+02
     -3.808  0.6195E+01  0.1726E+02
     -3.798  0.6475E+01  0.1732E+02
     -3.787  0.3909E+01  0.1736E+02
     -3.777  0.2774E+01  0.1739E+02
     -3.767  0.3174E+01  0.1742E+02
     -3.757  0.3188E+01  0.1746E+02
     -3.747  0.2113E+01  0.1748E+02
     -3.737  0.1378E+01  0.1749E+02
     -3.726  0.1792E+01  0.1751E+02
     -3.716  0.1559E+01  0.1753E+02
     -3.706  0.1880E+01  0.1755E+02
     -3.696  0.2481E+01  0.1757E+02
     -3.686  0.2123E+01  0.1759E+02
     -3.675  0.2078E+01  0.1761E+02
     -3.665  0.2753E+01  0.1764E+02
     -3.655  0.3077E+01  0.1767E+02
     -3.645  0.3062E+01  0.1770E+02
     -3.635  0.3086E+01  0.1774E+02
     -3.624  0.3142E+01  0.1777E+02
     -3.614  0.3017E+01  0.1780E+02
     -3.604  0.2757E+01  0.1783E+02
     -3.594  0.3025E+01  0.1786E+02
     -3.584  0.3416E+01  0.1789E+02
     -3.574  0.3347E+01  0.1793E+02
     -3.563  0.3518E+01  0.1796E+02
     -3.553  0.3033E+01  0.1799E+02
     -3.543  0.1955E+01  0.1801E+02
     -3.533  0.2671E+01  0.1804E+02
     -3.523  0.3088E+01  0.1807E+02
     -3.512  0.3976E+01  0.1811E+02
     -3.502  0.3740E+01  0.1815E+02
     -3.492  0.2081E+01  0.1817E+02
     -3.482  0.1502E+01  0.1819E+02
     -3.472  0.3009E+01  0.1822E+02
     -3.462  0.3230E+01  0.1825E+02
     -3.451  0.2290E+01  0.1827E+02
     -3.441  0.1955E+01  0.1829E+02
     -3.431  0.1316E+01  0.1831E+02
     -3.421  0.1995E+01  0.1833E+02
     -3.411  0.2553E+01  0.1835E+02
     -3.400  0.1974E+01  0.1837E+02
     -3.390  0.2718E+01  0.1840E+02
     -3.380  0.2685E+01  0.1843E+02
     -3.370  0.3737E+01  0.1847E+02
     -3.360  0.3673E+01  0.1850E+02
     -3.349  0.2745E+01  0.1853E+02
     -3.339  0.3126E+01  0.1856E+02
     -3.329  0.3292E+01  0.1860E+02
     -3.319  0.2524E+01  0.1862E+02
     -3.309  0.2827E+01  0.1865E+02
     -3.299  0.2646E+01  0.1868E+02
     -3.288  0.2190E+01  0.1870E+02
     -3.278  0.3127E+01  0.1873E+02
     -3.268  0.3543E+01  0.1877E+02
     -3.258  0.2959E+01  0.1880E+02
     -3.248  0.3003E+01  0.1883E+02
     -3.237  0.3040E+01  0.1886E+02
     -3.227  0.2141E+01  0.1888E+02
     -3.217  0.4035E+01  0.1892E+02
     -3.207  0.5308E+01  0.1898E+02
     -3.197  0.3972E+01  0.1902E+02
     -3.187  0.2214E+01  0.1904E+02
     -3.176  0.1105E+01  0.1905E+02
     -3.166  0.2145E+01  0.1907E+02
     -3.156  0.2558E+01  0.1910E+02
     -3.146  0.1832E+01  0.1912E+02
     -3.136  0.1330E+01  0.1913E+02
     -3.125  0.7616E+00  0.1914E+02
     -3.115  0.1213E+01  0.1915E+02
     -3.105  0.2295E+01  0.1918E+02
     -3.095  0.2392E+01  0.1920E+02
     -3.085  0.2097E+01  0.1922E+02
     -3.074  0.2640E+01  0.1925E+02
     -3.064  0.2678E+01  0.1928E+02
     -3.054  0.3739E+01  0.1931E+02
     -3.044  0.3935E+01  0.1935E+02
     -3.034  0.3852E+01  0.1939E+02
     -3.024  0.3317E+01  0.1943E+02
     -3.013  0.2711E+01  0.1945E+02
     -3.003  0.3316E+01  0.1949E+02
     -2.993  0.4023E+01  0.1953E+02
     -2.983  0.3316E+01  0.1956E+02
     -2.973  0.3917E+01  0.1960E+02
     -2.962  0.3222E+01  0.1964E+02
     -2.952  0.2787E+01  0.1966E+02
     -2.942  0.2700E+01  0.1969E+02
     -2.932  0.1932E+01  0.1971E+02
     -2.922  0.1434E+01  0.1973E+02
     -2.911  0.2386E+01  0.1975E+02
     -2.901  0.3299E+01  0.1978E+02
     -2.891  0.2709E+01  0.1981E+02
     -2.881  0.2697E+01  0.1984E+02
     -2.871  0.3620E+01  0.1988E+02
     -2.861  0.3284E+01  0.1991E+02
     -2.850  0.2902E+01  0.1994E+02
     -2.840  0.2586E+01  0.1997E+02
     -2.830  0.3710E+01  0.2000E+02
     -2.820  0.3785E+01  0.2004E+02
     -2.810  0.2817E+01  0.2007E+02
     -2.799  0.2704E+01  0.2010E+02
     -2.789  0.2383E+01  0.2012E+02
     -2.779  0.2508E+01  0.2015E+02
     -2.769  0.2264E+01  0.2017E+02
     -2.759  0.1242E+01  0.2018E+02
     -2.749  0.8277E+00  0.2019E+02
     -2.738  0.1758E+01  0.2021E+02
     -2.728  0.2250E+01  0.2023E+02
     -2.718  0.1801E+01  0.2025E+02
     -2.708  0.2551E+01  0.2028E+02
     -2.698  0.4347E+01  0.2032E+02
     -2.687  0.2993E+01  0.2035E+02
     -2.677  0.1347E+01  0.2037E+02
     -2.667  0.2020E+01  0.2039E+02
     -2.657  0.2812E+01  0.2041E+02
     -2.647  0.2705E+01  0.2044E+02
     -2.636  0.2836E+01  0.2047E+02
     -2.626  0.2623E+01  0.2050E+02
     -2.616  0.2542E+01  0.2052E+02
     -2.606  0.1564E+01  0.2054E+02
     -2.596  0.1236E+01  0.2055E+02
     -2.586  0.2523E+01  0.2058E+02
     -2.575  0.3947E+01  0.2062E+02
     -2.565  0.2832E+01  0.2065E+02
     -2.555  0.1959E+01  0.2067E+02
     -2.545  0.2640E+01  0.2069E+02
     -2.535  0.3117E+01  0.2073E+02
     -2.524  0.4501E+01  0.2077E+02
     -2.514  0.3746E+01  0.2081E+02
     -2.504  0.3304E+01  0.2084E+02
     -2.494  0.4160E+01  0.2089E+02
     -2.484  0.3476E+01  0.2092E+02
     -2.474  0.2069E+01  0.2094E+02
     -2.463  0.2620E+01  0.2097E+02
     -2.453  0.3389E+01  0.2100E+02
     -2.443  0.4406E+01  0.2105E+02
     -2.433  0.3629E+01  0.2108E+02
     -2.423  0.2310E+01  0.2111E+02
     -2.412  0.2198E+01  0.2113E+02
     -2.402  0.1997E+01  0.2115E+02
     -2.392  0.2522E+01  0.2118E+02
     -2.382  0.3985E+01  0.2122E+02
     -2.372  0.4546E+01  0.2126E+02
     -2.361  0.3003E+01  0.2129E+02
     -2.351  0.2405E+01  0.2132E+02
     -2.341  0.2395E+01  0.2134E+02
     -2.331  0.2452E+01  0.2137E+02
     -2.321  0.1898E+01  0.2139E+02
     -2.311  0.2706E+01  0.2142E+02
     -2.300  0.4268E+01  0.2146E+02
     -2.290  0.3148E+01  0.2149E+02
     -2.280  0.2701E+01  0.2152E+02
     -2.270  0.3400E+01  0.2155E+02
     -2.260  0.3935E+01  0.2159E+02
     -2.249  0.4493E+01  0.2164E+02
     -2.239  0.5507E+01  0.2169E+02
     -2.229  0.5753E+01  0.2175E+02
     -2.219  0.5053E+01  0.2180E+02
     -2.209  0.5604E+01  0.2186E+02
     -2.198  0.5487E+01  0.2192E+02
     -2.188  0.4455E+01  0.2196E+02
     -2.178  0.3455E+01  0.2200E+02
     -2.168  0.1703E+01  0.2202E+02
     -2.158  0.1437E+01  0.2203E+02
     -2.148  0.1251E+01  0.2204E+02
     -2.137  0.2063E+01  0.2206E+02
     -2.127  0.3374E+01  0.2210E+02
     -2.117  0.5880E+01  0.2216E+02
     -2.107  0.7781E+01  0.2224E+02
     -2.097  0.5118E+01  0.2229E+02
     -2.086  0.2779E+01  0.2232E+02
     -2.076  0.2151E+01  0.2234E+02
     -2.066  0.2511E+01  0.2237E+02
     -2.056  0.3668E+01  0.2240E+02
     -2.046  0.3633E+01  0.2244E+02
     -2.036  0.2066E+01  0.2246E+02
     -2.025  0.2337E+01  0.2248E+02
     -2.015  0.4254E+01  0.2253E+02
     -2.005  0.5204E+01  0.2258E+02
     -1.995  0.4408E+01  0.2263E+02
     -1.985  0.3065E+01  0.2266E+02
     -1.974  0.2124E+01  0.2268E+02
     -1.964  0.2935E+01  0.2271E+02
     -1.954  0.2765E+01  0.2274E+02
     -1.944  0.2868E+01  0.2277E+02
     -1.934  0.3726E+01  0.2280E+02
     -1.923  0.2795E+01  0.2283E+02
     -1.913  0.4494E+01  0.2288E+02
     -1.903  0.5706E+01  0.2294E+02
     -1.893  0.6881E+01  0.2301E+02
     -1.883  0.6728E+01  0.2308E+02
     -1.873  0.6028E+01  0.2314E+02
     -1.862  0.6236E+01  0.2320E+02
     -1.852  0.5872E+01  0.2326E+02
     -1.842  0.7287E+01  0.2333E+02
     -1.832  0.6866E+01  0.2340E+02
     -1.822  0.5369E+01  0.2346E+02
     -1.811  0.4523E+01  0.2350E+02
     -1.801  0.3422E+01  0.2354E+02
     -1.791  0.2783E+01  0.2357E+02
     -1.781  0.2416E+01  0.2359E+02
     -1.771  0.3581E+01  0.2363E+02
     -1.761  0.5428E+01  0.2368E+02
     -1.750  0.6996E+01  0.2376E+02
     -1.740  0.9489E+01  0.2385E+02
     -1.730  0.9087E+01  0.2394E+02
     -1.720  0.7100E+01  0.2402E+02
     -1.710  0.7037E+01  0.2409E+02
     -1.699  0.5993E+01  0.2415E+02
     -1.689  0.4470E+01  0.2420E+02
     -1.679  0.4623E+01  0.2424E+02
     -1.669  0.4315E+01  0.2429E+02
     -1.659  0.4271E+01  0.2433E+02
     -1.648  0.4269E+01  0.2437E+02
     -1.638  0.5004E+01  0.2442E+02
     -1.628  0.5759E+01  0.2448E+02
     -1.618  0.7760E+01  0.2456E+02
     -1.608  0.8315E+01  0.2465E+02
     -1.598  0.7110E+01  0.2472E+02
     -1.587  0.6444E+01  0.2478E+02
     -1.577  0.6800E+01  0.2485E+02
     -1.567  0.6714E+01  0.2492E+02
     -1.557  0.8207E+01  0.2501E+02
     -1.547  0.7329E+01  0.2508E+02
     -1.536  0.3750E+01  0.2512E+02
     -1.526  0.3159E+01  0.2515E+02
     -1.516  0.5724E+01  0.2521E+02
     -1.506  0.5980E+01  0.2527E+02
     -1.496  0.6833E+01  0.2534E+02
     -1.486  0.7736E+01  0.2542E+02
     -1.475  0.7385E+01  0.2549E+02
     -1.465  0.7264E+01  0.2557E+02
     -1.455  0.7073E+01  0.2564E+02
     -1.445  0.6818E+01  0.2571E+02
     -1.435  0.6806E+01  0.2578E+02
     -1.424  0.5699E+01  0.2584E+02
     -1.414  0.4854E+01  0.2589E+02
     -1.404  0.3501E+01  0.2592E+02
     -1.394  0.3237E+01  0.2595E+02
     -1.384  0.6144E+01  0.2602E+02
     -1.373  0.8423E+01  0.2610E+02
     -1.363  0.7204E+01  0.2618E+02
     -1.353  0.5677E+01  0.2623E+02
     -1.343  0.6106E+01  0.2630E+02
     -1.333  0.5478E+01  0.2635E+02
     -1.323  0.4216E+01  0.2640E+02
     -1.312  0.3348E+01  0.2643E+02
     -1.302  0.4380E+01  0.2647E+02
     -1.292  0.6338E+01  0.2654E+02
     -1.282  0.5747E+01  0.2660E+02
     -1.272  0.4142E+01  0.2664E+02
     -1.261  0.3995E+01  0.2668E+02
     -1.251  0.4228E+01  0.2672E+02
     -1.241  0.3324E+01  0.2676E+02
     -1.231  0.3319E+01  0.2679E+02
     -1.221  0.3396E+01  0.2683E+02
     -1.210  0.4157E+01  0.2687E+02
     -1.200  0.3714E+01  0.2691E+02
     -1.190  0.4588E+01  0.2695E+02
     -1.180  0.5656E+01  0.2701E+02
     -1.170  0.5870E+01  0.2707E+02
     -1.160  0.7866E+01  0.2715E+02
     -1.149  0.8825E+01  0.2724E+02
     -1.139  0.8917E+01  0.2733E+02
     -1.129  0.9789E+01  0.2743E+02
     -1.119  0.8191E+01  0.2751E+02
     -1.109  0.6971E+01  0.2758E+02
     -1.098  0.7745E+01  0.2766E+02
     -1.088  0.5824E+01  0.2772E+02
     -1.078  0.3817E+01  0.2776E+02
     -1.068  0.4149E+01  0.2780E+02
     -1.058  0.4063E+01  0.2785E+02
     -1.048  0.3023E+01  0.2788E+02
     -1.037  0.2647E+01  0.2790E+02
     -1.027  0.3923E+01  0.2794E+02
     -1.017  0.4261E+01  0.2799E+02
     -1.007  0.1872E+01  0.2801E+02
     -0.997  0.2399E+01  0.2803E+02
     -0.986  0.2843E+01  0.2806E+02
     -0.976  0.2438E+01  0.2808E+02
     -0.966  0.2446E+01  0.2811E+02
     -0.956  0.1844E+01  0.2813E+02
     -0.946  0.1430E+01  0.2814E+02
     -0.935  0.1537E+01  0.2816E+02
     -0.925  0.3065E+01  0.2819E+02
     -0.915  0.3863E+01  0.2823E+02
     -0.905  0.2978E+01  0.2826E+02
     -0.895  0.2222E+01  0.2828E+02
     -0.885  0.2056E+01  0.2830E+02
     -0.874  0.1505E+01  0.2832E+02
     -0.864  0.1850E+01  0.2834E+02
     -0.854  0.3562E+01  0.2837E+02
     -0.844  0.4086E+01  0.2841E+02
     -0.834  0.3136E+01  0.2845E+02
     -0.823  0.3604E+01  0.2848E+02
     -0.813  0.3158E+01  0.2851E+02
     -0.803  0.1446E+01  0.2853E+02
     -0.793  0.1081E+01  0.2854E+02
     -0.783  0.2018E+01  0.2856E+02
     -0.773  0.2237E+01  0.2858E+02
     -0.762  0.2248E+01  0.2861E+02
     -0.752  0.3550E+01  0.2864E+02
     -0.742  0.4930E+01  0.2869E+02
     -0.732  0.6261E+01  0.2876E+02
     -0.722  0.4879E+01  0.2881E+02
     -0.711  0.2873E+01  0.2884E+02
     -0.701  0.2127E+01  0.2886E+02
     -0.691  0.2646E+01  0.2888E+02
     -0.681  0.4624E+01  0.2893E+02
     -0.671  0.4683E+01  0.2898E+02
     -0.660  0.4360E+01  0.2902E+02
     -0.650  0.4263E+01  0.2907E+02
     -0.640  0.3799E+01  0.2911E+02
     -0.630  0.4631E+01  0.2915E+02
     -0.620  0.3521E+01  0.2919E+02
     -0.610  0.3336E+01  0.2922E+02
     -0.599  0.5771E+01  0.2928E+02
     -0.589  0.7816E+01  0.2936E+02
     -0.579  0.7372E+01  0.2944E+02
     -0.569  0.5125E+01  0.2949E+02
     -0.559  0.3924E+01  0.2953E+02
     -0.548  0.4823E+01  0.2958E+02
     -0.538  0.5750E+01  0.2964E+02
     -0.528  0.6182E+01  0.2970E+02
     -0.518  0.5484E+01  0.2976E+02
     -0.508  0.6644E+01  0.2982E+02
     -0.498  0.8288E+01  0.2991E+02
     -0.487  0.9018E+01  0.3000E+02
     -0.477  0.8801E+01  0.3009E+02
     -0.467  0.7475E+01  0.3016E+02
     -0.457  0.5454E+01  0.3022E+02
     -0.447  0.3847E+01  0.3026E+02
     -0.436  0.4731E+01  0.3031E+02
     -0.426  0.6152E+01  0.3037E+02
     -0.416  0.6564E+01  0.3044E+02
     -0.406  0.5060E+01  0.3049E+02
     -0.396  0.4002E+01  0.3053E+02
     -0.385  0.4657E+01  0.3058E+02
     -0.375  0.4768E+01  0.3063E+02
     -0.365  0.5187E+01  0.3068E+02
     -0.355  0.6211E+01  0.3074E+02
     -0.345  0.4337E+01  0.3079E+02
     -0.335  0.3579E+01  0.3082E+02
     -0.324  0.4476E+01  0.3087E+02
     -0.314  0.7619E+01  0.3095E+02
     -0.304  0.9947E+01  0.3105E+02
     -0.294  0.7369E+01  0.3112E+02
     -0.284  0.4790E+01  0.3117E+02
     -0.273  0.6457E+01  0.3124E+02
     -0.263  0.6510E+01  0.3130E+02
     -0.253  0.4802E+01  0.3135E+02
     -0.243  0.5082E+01  0.3140E+02
     -0.233  0.7817E+01  0.3148E+02
     -0.222  0.9007E+01  0.3157E+02
     -0.212  0.9537E+01  0.3167E+02
     -0.202  0.7917E+01  0.3175E+02
     -0.192  0.4713E+01  0.3180E+02
     -0.182  0.4512E+01  0.3185E+02
     -0.172  0.4447E+01  0.3189E+02
     -0.161  0.2992E+01  0.3192E+02
     -0.151  0.5267E+01  0.3198E+02
     -0.141  0.9041E+01  0.3207E+02
     -0.131  0.8659E+01  0.3216E+02
     -0.121  0.6263E+01  0.3222E+02
     -0.110  0.7403E+01  0.3230E+02
     -0.100  0.8856E+01  0.3239E+02
     -0.090  0.8708E+01  0.3247E+02
     -0.080  0.8381E+01  0.3256E+02
     -0.070  0.6823E+01  0.3263E+02
     -0.060  0.5381E+01  0.3268E+02
     -0.049  0.3825E+01  0.3272E+02
     -0.039  0.4516E+01  0.3277E+02
     -0.029  0.5720E+01  0.3283E+02
     -0.019  0.8272E+01  0.3291E+02
     -0.009  0.1008E+02  0.3301E+02
      0.002  0.9106E+01  0.3311E+02
      0.012  0.5765E+01  0.3317E+02
      0.022  0.3784E+01  0.3320E+02
      0.032  0.4207E+01  0.3325E+02
      0.042  0.7213E+01  0.3332E+02
      0.053  0.6347E+01  0.3339E+02
      0.063  0.4798E+01  0.3343E+02
      0.073  0.5263E+01  0.3349E+02
      0.083  0.6840E+01  0.3356E+02
      0.093  0.7285E+01  0.3363E+02
      0.103  0.6178E+01  0.3369E+02
      0.114  0.6684E+01  0.3376E+02
      0.124  0.8629E+01  0.3385E+02
      0.134  0.1069E+02  0.3396E+02
      0.144  0.1053E+02  0.3407E+02
      0.154  0.8873E+01  0.3416E+02
      0.165  0.1050E+02  0.3426E+02
      0.175  0.1233E+02  0.3439E+02
      0.185  0.1311E+02  0.3452E+02
      0.195  0.1273E+02  0.3465E+02
      0.205  0.1009E+02  0.3476E+02
      0.215  0.9810E+01  0.3486E+02
      0.226  0.9223E+01  0.3495E+02
      0.236  0.5909E+01  0.3501E+02
      0.246  0.6620E+01  0.3508E+02
      0.256  0.7103E+01  0.3515E+02
      0.266  0.6267E+01  0.3521E+02
      0.277  0.8099E+01  0.3530E+02
      0.287  0.1137E+02  0.3541E+02
      0.297  0.1284E+02  0.3554E+02
      0.307  0.8461E+01  0.3563E+02
      0.317  0.6435E+01  0.3569E+02
      0.328  0.6811E+01  0.3576E+02
      0.338  0.9276E+01  0.3586E+02
      0.348  0.9283E+01  0.3595E+02
      0.358  0.6499E+01  0.3602E+02
      0.368  0.5854E+01  0.3608E+02
      0.378  0.7307E+01  0.3615E+02
      0.389  0.7043E+01  0.3622E+02
      0.399  0.7825E+01  0.3630E+02
      0.409  0.8674E+01  0.3639E+02
      0.419  0.9507E+01  0.3649E+02
      0.429  0.1171E+02  0.3661E+02
      0.440  0.8348E+01  0.3669E+02
      0.450  0.6385E+01  0.3676E+02
      0.460  0.6693E+01  0.3683E+02
      0.470  0.4153E+01  0.3687E+02
      0.480  0.4115E+01  0.3691E+02
      0.491  0.4125E+01  0.3695E+02
      0.501  0.3073E+01  0.3698E+02
      0.511  0.2491E+01  0.3701E+02
      0.521  0.4737E+01  0.3706E+02
      0.531  0.5790E+01  0.3712E+02
      0.541  0.4226E+01  0.3716E+02
      0.552  0.4564E+01  0.3721E+02
      0.562  0.4142E+01  0.3725E+02
      0.572  0.3175E+01  0.3728E+02
      0.582  0.2519E+01  0.3731E+02
      0.592  0.2480E+01  0.3733E+02
      0.603  0.3181E+01  0.3736E+02
      0.613  0.3314E+01  0.3740E+02
      0.623  0.3314E+01  0.3743E+02
      0.633  0.3978E+01  0.3747E+02
      0.643  0.3257E+01  0.3751E+02
      0.653  0.3070E+01  0.3754E+02
      0.664  0.3061E+01  0.3757E+02
      0.674  0.3812E+01  0.3761E+02
      0.684  0.4013E+01  0.3765E+02
      0.694  0.3102E+01  0.3768E+02
      0.704  0.3049E+01  0.3771E+02
      0.715  0.2189E+01  0.3773E+02
      0.725  0.3679E+01  0.3777E+02
      0.735  0.4405E+01  0.3781E+02
      0.745  0.3791E+01  0.3785E+02
      0.755  0.4695E+01  0.3790E+02
      0.766  0.4273E+01  0.3794E+02
      0.776  0.2401E+01  0.3797E+02
      0.786  0.3160E+01  0.3800E+02
      0.796  0.4509E+01  0.3805E+02
      0.806  0.4337E+01  0.3809E+02
      0.816  0.3381E+01  0.3813E+02
      0.827  0.2217E+01  0.3815E+02
      0.837  0.3434E+01  0.3818E+02
      0.847  0.4767E+01  0.3823E+02
      0.857  0.3734E+01  0.3827E+02
      0.867  0.3119E+01  0.3830E+02
      0.878  0.2958E+01  0.3833E+02
      0.888  0.3586E+01  0.3837E+02
      0.898  0.4239E+01  0.3841E+02
      0.908  0.3589E+01  0.3845E+02
      0.918  0.4464E+01  0.3849E+02
      0.928  0.4418E+01  0.3854E+02
      0.939  0.2585E+01  0.3857E+02
      0.949  0.3011E+01  0.3860E+02
      0.959  0.2998E+01  0.3863E+02
      0.969  0.2768E+01  0.3865E+02
      0.979  0.3382E+01  0.3869E+02
      0.990  0.4112E+01  0.3873E+02
      1.000  0.4908E+01  0.3878E+02
      1.010  0.2835E+01  0.3881E+02
      1.020  0.1309E+01  0.3882E+02
      1.030  0.1962E+01  0.3884E+02
      1.041  0.3862E+01  0.3888E+02
      1.051  0.4482E+01  0.3893E+02
      1.061  0.2931E+01  0.3896E+02
      1.071  0.2015E+01  0.3898E+02
      1.081  0.2842E+01  0.3901E+02
      1.091  0.4119E+01  0.3905E+02
      1.102  0.3902E+01  0.3909E+02
      1.112  0.3123E+01  0.3912E+02
      1.122  0.3387E+01  0.3916E+02
      1.132  0.4185E+01  0.3920E+02
      1.142  0.3449E+01  0.3923E+02
      1.153  0.2690E+01  0.3926E+02
      1.163  0.1958E+01  0.3928E+02
      1.173  0.9576E+00  0.3929E+02
      1.183  0.1933E+01  0.3931E+02
      1.193  0.4354E+01  0.3935E+02
      1.203  0.3884E+01  0.3939E+02
      1.214  0.3173E+01  0.3943E+02
      1.224  0.3398E+01  0.3946E+02
      1.234  0.3908E+01  0.3950E+02
      1.244  0.3866E+01  0.3954E+02
      1.254  0.4103E+01  0.3958E+02
      1.265  0.3304E+01  0.3962E+02
      1.275  0.2338E+01  0.3964E+02
      1.285  0.2505E+01  0.3966E+02
      1.295  0.3061E+01  0.3970E+02
      1.305  0.4381E+01  0.3974E+02
      1.316  0.4254E+01  0.3978E+02
      1.326  0.3458E+01  0.3982E+02
      1.336  0.3940E+01  0.3986E+02
      1.346  0.4889E+01  0.3991E+02
      1.356  0.5744E+01  0.3997E+02
      1.366  0.5002E+01  0.4002E+02
      1.377  0.3925E+01  0.4006E+02
      1.387  0.3582E+01  0.4009E+02
      1.397  0.5449E+01  0.4015E+02
      1.407  0.5271E+01  0.4020E+02
      1.417  0.3393E+01  0.4024E+02
      1.428  0.3427E+01  0.4027E+02
      1.438  0.3957E+01  0.4031E+02
      1.448  0.4281E+01  0.4036E+02
      1.458  0.5383E+01  0.4041E+02
      1.468  0.4285E+01  0.4046E+02
      1.479  0.3040E+01  0.4049E+02
      1.489  0.3254E+01  0.4052E+02
      1.499  0.4593E+01  0.4057E+02
      1.509  0.3305E+01  0.4060E+02
      1.519  0.2077E+01  0.4062E+02
      1.529  0.2219E+01  0.4064E+02
      1.540  0.3589E+01  0.4068E+02
      1.550  0.4277E+01  0.4072E+02
      1.560  0.4867E+01  0.4077E+02
      1.570  0.5565E+01  0.4083E+02
      1.580  0.5405E+01  0.4089E+02
      1.591  0.4315E+01  0.4093E+02
      1.601  0.3730E+01  0.4097E+02
      1.611  0.4092E+01  0.4101E+02
      1.621  0.3316E+01  0.4104E+02
      1.631  0.4253E+01  0.4109E+02
      1.641  0.5799E+01  0.4115E+02
      1.652  0.4726E+01  0.4119E+02
      1.662  0.3572E+01  0.4123E+02
      1.672  0.5363E+01  0.4128E+02
      1.682  0.5451E+01  0.4134E+02
      1.692  0.4716E+01  0.4139E+02
      1.703  0.3281E+01  0.4142E+02
      1.713  0.2307E+01  0.4145E+02
      1.723  0.2643E+01  0.4147E+02
      1.733  0.3990E+01  0.4151E+02
      1.743  0.4633E+01  0.4156E+02
      1.754  0.3699E+01  0.4160E+02
      1.764  0.2237E+01  0.4162E+02
      1.774  0.1779E+01  0.4164E+02
      1.784  0.1974E+01  0.4166E+02
      1.794  0.2161E+01  0.4168E+02
      1.804  0.1651E+01  0.4170E+02
      1.815  0.2213E+01  0.4172E+02
      1.825  0.3080E+01  0.4175E+02
      1.835  0.2203E+01  0.4177E+02
      1.845  0.2212E+01  0.4180E+02
      1.855  0.2778E+01  0.4182E+02
      1.866  0.2601E+01  0.4185E+02
      1.876  0.3059E+01  0.4188E+02
      1.886  0.3343E+01  0.4192E+02
      1.896  0.2016E+01  0.4194E+02
      1.906  0.2612E+01  0.4196E+02
      1.916  0.3595E+01  0.4200E+02
      1.927  0.1754E+01  0.4202E+02
      1.937  0.1295E+01  0.4203E+02
      1.947  0.2176E+01  0.4205E+02
      1.957  0.3404E+01  0.4209E+02
      1.967  0.2628E+01  0.4211E+02
      1.978  0.2702E+01  0.4214E+02
      1.988  0.2614E+01  0.4217E+02
      1.998  0.2945E+01  0.4220E+02
      2.008  0.3578E+01  0.4224E+02
      2.018  0.3520E+01  0.4227E+02
      2.029  0.2682E+01  0.4230E+02
      2.039  0.2080E+01  0.4232E+02
      2.049  0.2653E+01  0.4235E+02
      2.059  0.2457E+01  0.4237E+02
      2.069  0.1447E+01  0.4239E+02
      2.079  0.1288E+01  0.4240E+02
      2.090  0.1812E+01  0.4242E+02
      2.100  0.1524E+01  0.4243E+02
      2.110  0.1663E+01  0.4245E+02
      2.120  0.2199E+01  0.4247E+02
      2.130  0.2484E+01  0.4250E+02
      2.141  0.3426E+01  0.4253E+02
      2.151  0.2698E+01  0.4256E+02
      2.161  0.1383E+01  0.4257E+02
      2.171  0.1759E+01  0.4259E+02
      2.181  0.3043E+01  0.4262E+02
      2.191  0.3147E+01  0.4266E+02
      2.202  0.2945E+01  0.4269E+02
      2.212  0.2604E+01  0.4271E+02
      2.222  0.2839E+01  0.4274E+02
      2.232  0.4001E+01  0.4278E+02
      2.242  0.2202E+01  0.4280E+02
      2.253  0.2185E+01  0.4283E+02
      2.263  0.3049E+01  0.4286E+02
      2.273  0.3114E+01  0.4289E+02
      2.283  0.2822E+01  0.4292E+02
      2.293  0.3033E+01  0.4295E+02
      2.304  0.2989E+01  0.4298E+02
      2.314  0.1744E+01  0.4300E+02
      2.324  0.1443E+01  0.4301E+02
      2.334  0.2746E+01  0.4304E+02
      2.344  0.3783E+01  0.4308E+02
      2.354  0.2534E+01  0.4310E+02
      2.365  0.1388E+01  0.4312E+02
      2.375  0.1988E+01  0.4314E+02
      2.385  0.1991E+01  0.4316E+02
      2.395  0.2061E+01  0.4318E+02
      2.405  0.2783E+01  0.4321E+02
      2.416  0.2618E+01  0.4323E+02
      2.426  0.2399E+01  0.4326E+02
      2.436  0.1621E+01  0.4328E+02
      2.446  0.1595E+01  0.4329E+02
      2.456  0.1659E+01  0.4331E+02
      2.467  0.1293E+01  0.4332E+02
      2.477  0.5435E+00  0.4333E+02
      2.487  0.5653E+00  0.4333E+02
      2.497  0.5639E+00  0.4334E+02
      2.507  0.4417E+00  0.4334E+02
      2.517  0.9170E+00  0.4335E+02
      2.528  0.1438E+01  0.4337E+02
      2.538  0.1619E+01  0.4338E+02
      2.548  0.5896E+00  0.4339E+02
      2.558  0.4845E-01  0.4339E+02
      2.568  0.6759E-01  0.4339E+02
      2.579  0.4763E+00  0.4340E+02
      2.589  0.5774E+00  0.4340E+02
      2.599  0.1208E+00  0.4340E+02
      2.609  0.2335E-01  0.4340E+02
      2.619  0.2773E+00  0.4341E+02
      2.629  0.6590E+00  0.4341E+02
      2.640  0.2726E+00  0.4342E+02
      2.650  0.5345E-01  0.4342E+02
      2.660  0.3651E+00  0.4342E+02
      2.670  0.6414E+00  0.4343E+02
      2.680  0.2106E+00  0.4343E+02
      2.691  0.2560E+00  0.4343E+02
      2.701  0.6599E+00  0.4344E+02
      2.711  0.4062E+00  0.4344E+02
      2.721  0.6686E+00  0.4345E+02
      2.731  0.1359E+01  0.4346E+02
      2.742  0.1311E+01  0.4348E+02
      2.752  0.3923E+00  0.4348E+02
      2.762  0.5250E+00  0.4349E+02
      2.772  0.5469E+00  0.4349E+02
      2.782  0.1072E+00  0.4349E+02
      2.792  0.1673E+00  0.4349E+02
      2.803  0.6220E+00  0.4350E+02
      2.813  0.4077E+00  0.4350E+02
      2.823  0.6917E-01  0.4351E+02
      2.833  0.3090E+00  0.4351E+02
      2.843  0.6565E+00  0.4351E+02
      2.854  0.2535E+00  0.4352E+02
      2.864  0.2211E+00  0.4352E+02
      2.874  0.6480E+00  0.4353E+02
      2.884  0.4278E+00  0.4353E+02
      2.894  0.5635E+00  0.4354E+02
      2.904  0.9116E+00  0.4355E+02
      2.915  0.7531E+00  0.4355E+02
      2.925  0.2084E+00  0.4356E+02
      2.935  0.1066E-01  0.4356E+02
      2.945  0.8219E-04  0.4356E+02
      2.955  0.8613E-05  0.4356E+02
      2.966  0.2256E-02  0.4356E+02
      2.976  0.8632E-01  0.4356E+02
      2.986  0.5212E+00  0.4356E+02
      2.996  0.5503E+00  0.4357E+02
      3.006  0.3101E+00  0.4357E+02
      3.017  0.6519E+00  0.4358E+02
      3.027  0.3412E+00  0.4358E+02
      3.037  0.5256E-01  0.4358E+02
      3.047  0.2995E+00  0.4358E+02
      3.057  0.6626E+00  0.4359E+02
      3.067  0.3996E+00  0.4360E+02
      3.078  0.8659E+00  0.4360E+02
      3.088  0.1444E+01  0.4362E+02
      3.098  0.1271E+01  0.4363E+02
      3.108  0.9751E+00  0.4364E+02
      3.118  0.9013E+00  0.4365E+02
      3.129  0.1191E+01  0.4366E+02
      3.139  0.8214E+00  0.4367E+02
      3.149  0.9684E+00  0.4368E+02
      3.159  0.1394E+01  0.4370E+02
      3.169  0.1533E+01  0.4371E+02
      3.179  0.9294E+00  0.4372E+02
      3.190  0.6577E+00  0.4373E+02
      3.200  0.8622E+00  0.4374E+02
      3.210  0.7580E+00  0.4374E+02
      3.220  0.3678E+00  0.4375E+02
      3.230  0.8047E+00  0.4376E+02
      3.241  0.1144E+01  0.4377E+02
      3.251  0.6493E+00  0.4377E+02
      3.261  0.1273E+01  0.4379E+02
      3.271  0.1717E+01  0.4380E+02
      3.281  0.1372E+01  0.4382E+02
      3.292  0.3815E+00  0.4382E+02
      3.302  0.2053E-01  0.4382E+02
      3.312  0.1779E-03  0.4382E+02
      3.322  0.2256E-06  0.4382E+02
      3.332  0.3948E-10  0.4382E+02
      3.342  0.8305E-15  0.4382E+02
      3.353  0.0000E+00  0.4382E+02
      3.363  0.0000E+00  0.4382E+02
      3.373  0.0000E+00  0.4382E+02
      3.383  0.0000E+00  0.4382E+02
      3.393  0.0000E+00  0.4382E+02
      3.404  0.0000E+00  0.4382E+02
      3.414  0.0000E+00  0.4382E+02
      3.424  0.0000E+00  0.4382E+02
      3.434  0.0000E+00  0.4382E+02
      3.444  0.0000E+00  0.4382E+02
      3.455  0.0000E+00  0.4382E+02
      3.465  0.0000E+00  0.4382E+02
      3.475  0.0000E+00  0.4382E+02
      3.485  0.0000E+00  0.4382E+02
      3.495  0.0000E+00  0.4382E+02
      3.505  0.0000E+00  0.4382E+02
      3.516  0.1337E-12  0.4382E+02
      3.526  0.2280E-08  0.4382E+02
      3.536  0.5142E-05  0.4382E+02
      3.546  0.1581E-02  0.4382E+02
      3.556  0.6988E-01  0.4382E+02
      3.567  0.4839E+00  0.4383E+02
      3.577  0.5755E+00  0.4383E+02
      3.587  0.2385E+00  0.4384E+02
      3.597  0.5834E+00  0.4384E+02
      3.607  0.4735E+00  0.4385E+02
      3.617  0.8106E-01  0.4385E+02
      3.628  0.2479E+00  0.4385E+02
      3.638  0.6570E+00  0.4386E+02
      3.648  0.3063E+00  0.4386E+02
      3.658  0.1076E+00  0.4386E+02
      3.668  0.5170E+00  0.4387E+02
      3.679  0.5459E+00  0.4387E+02
      3.689  0.1999E+00  0.4387E+02
      3.699  0.5539E+00  0.4388E+02
      3.709  0.5736E+00  0.4389E+02
      3.719  0.5850E+00  0.4389E+02
      3.730  0.9598E+00  0.4390E+02
      3.740  0.7636E+00  0.4391E+02
      3.750  0.1930E+00  0.4391E+02
      3.760  0.9102E-02  0.4391E+02
      3.770  0.6483E-04  0.4391E+02
      3.780  0.6420E-07  0.4391E+02
      3.791  0.4905E-09  0.4391E+02
      3.801  0.1545E-05  0.4391E+02
      3.811  0.6703E-03  0.4391E+02
      3.821  0.4135E-01  0.4391E+02
      3.831  0.3931E+00  0.4392E+02
      3.842  0.6513E+00  0.4392E+02
      3.852  0.4698E+00  0.4393E+02
      3.862  0.6660E+00  0.4393E+02
      3.872  0.2699E+00  0.4394E+02
      3.882  0.2612E+00  0.4394E+02
      3.892  0.6570E+00  0.4395E+02
      3.903  0.3149E+00  0.4395E+02
      3.913  0.2114E+00  0.4395E+02
      3.923  0.6377E+00  0.4396E+02
      3.933  0.3957E+00  0.4396E+02
      3.943  0.3235E+00  0.4397E+02
      3.954  0.6713E+00  0.4397E+02
      3.964  0.4868E+00  0.4398E+02
      3.974  0.8074E+00  0.4399E+02
      3.984  0.9363E+00  0.4399E+02
      3.994  0.4741E+00  0.4400E+02
      4.005  0.5643E-01  0.4400E+02
      4.015  0.1098E-02  0.4400E+02
      4.025  0.3075E-05  0.4400E+02
      4.035  0.1171E-08  0.4400E+02
      4.045  0.5896E-13  0.4400E+02
      4.055  0.0000E+00  0.4400E+02
      4.066  0.0000E+00  0.4400E+02
      4.076  0.0000E+00  0.4400E+02
      4.086  0.0000E+00  0.4400E+02
      4.096  0.0000E+00  0.4400E+02
      4.106  0.0000E+00  0.4400E+02
      4.117  0.0000E+00  0.4400E+02
      4.127  0.0000E+00  0.4400E+02
      4.137  0.0000E+00  0.4400E+02
      4.147  0.0000E+00  0.4400E+02
      4.157  0.0000E+00  0.4400E+02
      4.168  0.0000E+00  0.4400E+02
      4.178  0.0000E+00  0.4400E+02
      4.188  0.0000E+00  0.4400E+02
      4.198  0.0000E+00  0.4400E+02
      4.208  0.0000E+00  0.4400E+02
      4.218  0.0000E+00  0.4400E+02
      4.229  0.0000E+00  0.4400E+02
      4.239  0.9476E-12  0.4400E+02
      4.249  0.9678E-08  0.4400E+02
      4.259  0.1315E-04  0.4400E+02
      4.269  0.2463E-02  0.4400E+02
      4.280  0.6757E-01  0.4400E+02
      4.290  0.2975E+00  0.4400E+02
      4.300  0.2261E+00  0.4401E+02
      4.310  0.3176E-01  0.4401E+02
      4.320  0.9385E-01  0.4401E+02
      4.330  0.5345E+00  0.4401E+02
      4.341  0.5255E+00  0.4402E+02
      4.351  0.8851E-01  0.4402E+02
      4.361  0.2354E-02  0.4402E+02
      4.371  0.1040E-04  0.4402E+02
      4.381  0.4991E-03  0.4402E+02
      4.392  0.2692E-01  0.4402E+02
      4.402  0.2444E+00  0.4402E+02
      4.412  0.5264E+00  0.4403E+02
      4.422  0.4863E+00  0.4403E+02
      4.432  0.6396E+00  0.4404E+02
      4.443  0.5363E+00  0.4404E+02
      4.453  0.5821E+00  0.4405E+02
      4.463  0.1237E+01  0.4406E+02
      4.473  0.6394E+00  0.4407E+02
      4.483  0.6665E-01  0.4407E+02
      4.493  0.1225E-02  0.4407E+02
      4.504  0.2791E-02  0.4407E+02
      4.514  0.7240E-01  0.4407E+02
      4.524  0.3027E+00  0.4407E+02
      4.534  0.2392E+00  0.4408E+02
      4.544  0.4277E+00  0.4408E+02
      4.555  0.1471E+01  0.4410E+02
      4.565  0.1086E+01  0.4411E+02
      4.575  0.4267E+00  0.4411E+02
      4.585  0.1044E+01  0.4412E+02
      4.595  0.9462E+00  0.4413E+02
      4.605  0.2053E+00  0.4413E+02
      4.616  0.8680E-02  0.4413E+02
      4.626  0.6087E-02  0.4413E+02
      4.636  0.1811E+00  0.4414E+02
      4.646  0.9816E+00  0.4415E+02
      4.656  0.1131E+01  0.4416E+02
      4.667  0.6946E+00  0.4416E+02
      4.677  0.7420E+00  0.4417E+02
      4.687  0.9868E+00  0.4418E+02
      4.697  0.1265E+01  0.4419E+02
      4.707  0.9955E+00  0.4420E+02
      4.718  0.1025E+01  0.4421E+02
      4.728  0.6821E+00  0.4422E+02
      4.738  0.5229E+00  0.4423E+02
      4.748  0.8569E+00  0.4424E+02
      4.758  0.8567E+00  0.4424E+02
      4.768  0.3754E+00  0.4425E+02
      4.779  0.8551E+00  0.4426E+02
      4.789  0.1734E+01  0.4427E+02
      4.799  0.1468E+01  0.4429E+02
      4.809  0.1450E+01  0.4430E+02
      4.819  0.6877E+00  0.4431E+02
      4.830  0.5863E+00  0.4432E+02
      4.840  0.7331E+00  0.4432E+02
      4.850  0.6132E+00  0.4433E+02
      4.860  0.5843E+00  0.4434E+02
      4.870  0.4983E+00  0.4434E+02
      4.880  0.6043E+00  0.4435E+02
      4.891  0.6033E+00  0.4435E+02
      4.901  0.5291E+00  0.4436E+02
      4.911  0.1497E+01  0.4438E+02
      4.921  0.1574E+01  0.4439E+02
      4.931  0.9990E+00  0.4440E+02
      4.942  0.6616E+00  0.4441E+02
      4.952  0.1178E+01  0.4442E+02
      4.962  0.1595E+01  0.4444E+02
      4.972  0.1299E+01  0.4445E+02
      4.982  0.9082E+00  0.4446E+02
      4.993  0.7565E+00  0.4447E+02
      5.003  0.5657E+00  0.4447E+02
      5.013  0.6876E+00  0.4448E+02
      5.023  0.4610E+00  0.4448E+02
      5.033  0.1193E+01  0.4450E+02
      5.043  0.2745E+01  0.4452E+02
      5.054  0.2231E+01  0.4455E+02
      5.064  0.5982E+00  0.4455E+02
      5.074  0.5572E+00  0.4456E+02
      5.084  0.1361E+01  0.4457E+02
      5.094  0.1357E+01  0.4459E+02
      5.105  0.1818E+01  0.4460E+02
      5.115  0.2503E+01  0.4463E+02
      5.125  0.1642E+01  0.4465E+02
      5.135  0.6270E+00  0.4465E+02
      5.145  0.3883E+00  0.4466E+02
      5.156  0.7569E+00  0.4467E+02
      5.166  0.1112E+01  0.4468E+02
      5.176  0.1987E+01  0.4470E+02
      5.186  0.1233E+01  0.4471E+02
      5.196  0.1879E+00  0.4471E+02
      5.206  0.2128E+00  0.4471E+02
      5.217  0.1346E+01  0.4473E+02
      5.227  0.2724E+01  0.4475E+02
      5.237  0.2228E+01  0.4478E+02
      5.247  0.1846E+01  0.4480E+02
      5.257  0.2562E+01  0.4482E+02
      5.268  0.2611E+01  0.4485E+02
      5.278  0.1268E+01  0.4486E+02
      5.288  0.1655E+00  0.4486E+02
      5.298  0.2151E+00  0.4487E+02
      5.308  0.1104E+01  0.4488E+02
      5.318  0.1449E+01  0.4489E+02
      5.329  0.1000E+01  0.4490E+02
      5.339  0.1696E+01  0.4492E+02
      5.349  0.2952E+01  0.4495E+02
      5.359  0.2414E+01  0.4497E+02
      5.369  0.1856E+01  0.4499E+02
      5.380  0.1950E+01  0.4501E+02
      5.390  0.1912E+01  0.4503E+02
      5.400  0.1751E+01  0.4505E+02
      5.410  0.2714E+01  0.4508E+02
      5.420  0.3518E+01  0.4511E+02
      5.431  0.2651E+01  0.4514E+02
      5.441  0.2254E+01  0.4516E+02
      5.451  0.3069E+01  0.4519E+02
      5.461  0.1998E+01  0.4521E+02
      5.471  0.2076E+01  0.4524E+02
      5.481  0.3327E+01  0.4527E+02
      5.492  0.3575E+01  0.4531E+02
      5.502  0.2775E+01  0.4533E+02
      5.512  0.2348E+01  0.4536E+02
      5.522  0.2388E+01  0.4538E+02
      5.532  0.3008E+01  0.4541E+02
      5.543  0.3466E+01  0.4545E+02
      5.553  0.2785E+01  0.4548E+02
      5.563  0.1350E+01  0.4549E+02
      5.573  0.8267E+00  0.4550E+02
      5.583  0.1594E+01  0.4552E+02
      5.593  0.2971E+01  0.4555E+02
      5.604  0.3316E+01  0.4558E+02
      5.614  0.3980E+01  0.4562E+02
      5.624  0.3864E+01  0.4566E+02
      5.634  0.3582E+01  0.4570E+02
      5.644  0.2631E+01  0.4572E+02
      5.655  0.2117E+01  0.4574E+02
      5.665  0.2925E+01  0.4577E+02
      5.675  0.3198E+01  0.4581E+02
      5.685  0.3590E+01  0.4584E+02
      5.695  0.4042E+01  0.4588E+02
      5.706  0.2835E+01  0.4591E+02
      5.716  0.2495E+01  0.4594E+02
      5.726  0.4368E+01  0.4598E+02
      5.736  0.3277E+01  0.4602E+02
      5.746  0.1546E+01  0.4603E+02
      5.756  0.1781E+01  0.4605E+02
      5.767  0.3335E+01  0.4608E+02
      5.777  0.5145E+01  0.4614E+02
      5.787  0.5313E+01  0.4619E+02
      5.797  0.3715E+01  0.4623E+02
      5.807  0.3237E+01  0.4626E+02
      5.818  0.4091E+01  0.4630E+02
      5.828  0.3737E+01  0.4634E+02
      5.838  0.2464E+01  0.4637E+02
      5.848  0.2082E+01  0.4639E+02
      5.858  0.2076E+01  0.4641E+02
      5.868  0.2296E+01  0.4643E+02
      5.879  0.4356E+01  0.4648E+02
      5.889  0.6003E+01  0.4654E+02
      5.899  0.4875E+01  0.4659E+02
      5.909  0.3805E+01  0.4663E+02
      5.919  0.4355E+01  0.4667E+02
      5.930  0.5251E+01  0.4672E+02
      5.940  0.6742E+01  0.4679E+02
      5.950  0.7050E+01  0.4686E+02
      5.960  0.5492E+01  0.4692E+02
      5.970  0.3942E+01  0.4696E+02
      5.981  0.3198E+01  0.4699E+02
      5.991  0.2157E+01  0.4702E+02
      6.001  0.2395E+01  0.4704E+02
      6.011  0.4983E+01  0.4709E+02
      6.021  0.5698E+01  0.4715E+02
      6.031  0.6040E+01  0.4721E+02
      6.042  0.6691E+01  0.4728E+02
      6.052  0.6106E+01  0.4734E+02
      6.062  0.5878E+01  0.4740E+02
      6.072  0.4231E+01  0.4744E+02
      6.082  0.2515E+01  0.4747E+02
      6.093  0.3046E+01  0.4750E+02
      6.103  0.2668E+01  0.4753E+02
      6.113  0.3819E+01  0.4757E+02
      6.123  0.6062E+01  0.4763E+02
      6.133  0.5022E+01  0.4768E+02
      6.144  0.3012E+01  0.4771E+02
      6.154  0.2103E+01  0.4773E+02
      6.164  0.3648E+01  0.4777E+02
      6.174  0.4658E+01  0.4782E+02
      6.184  0.3932E+01  0.4786E+02
      6.194  0.4220E+01  0.4790E+02
      6.205  0.5195E+01  0.4795E+02
      6.215  0.6414E+01  0.4802E+02
      6.225  0.5573E+01  0.4807E+02
      6.235  0.6343E+01  0.4814E+02
      6.245  0.6471E+01  0.4820E+02
      6.256  0.4325E+01  0.4825E+02
      6.266  0.4930E+01  0.4830E+02
      6.276  0.4630E+01  0.4835E+02
      6.286  0.2250E+01  0.4837E+02
      6.296  0.2444E+01  0.4839E+02
      6.306  0.4198E+01  0.4844E+02
      6.317  0.4226E+01  0.4848E+02
      6.327  0.4324E+01  0.4852E+02
      6.337  0.6197E+01  0.4859E+02
      6.347  0.5311E+01  0.4864E+02
      6.357  0.4033E+01  0.4868E+02
      6.368  0.4252E+01  0.4872E+02
      6.378  0.3573E+01  0.4876E+02
      6.388  0.2803E+01  0.4879E+02
      6.398  0.2336E+01  0.4881E+02
      6.408  0.3294E+01  0.4885E+02
      6.419  0.3280E+01  0.4888E+02
      6.429  0.3415E+01  0.4892E+02
      6.439  0.4582E+01  0.4896E+02
      6.449  0.5663E+01  0.4902E+02
      6.459  0.4584E+01  0.4907E+02
      6.469  0.3268E+01  0.4910E+02
      6.480  0.3140E+01  0.4913E+02
      6.490  0.4525E+01  0.4918E+02
      6.500  0.3987E+01  0.4922E+02
      6.510  0.2990E+01  0.4925E+02
      6.520  0.2860E+01  0.4928E+02
      6.531  0.2938E+01  0.4931E+02
      6.541  0.3583E+01  0.4934E+02
      6.551  0.7100E+01  0.4942E+02
      6.561  0.6943E+01  0.4949E+02
      6.571  0.5118E+01  0.4954E+02
      6.581  0.4507E+01  0.4959E+02
      6.592  0.3098E+01  0.4962E+02
      6.602  0.2872E+01  0.4965E+02
      6.612  0.2391E+01  0.4967E+02
      6.622  0.3008E+01  0.4970E+02
      6.632  0.2984E+01  0.4973E+02
      6.643  0.1464E+01  0.4975E+02
      6.653  0.1740E+01  0.4976E+02
      6.663  0.2895E+01  0.4979E+02
      6.673  0.2171E+01  0.4982E+02
      6.683  0.1995E+01  0.4984E+02
      6.694  0.2962E+01  0.4987E+02
      6.704  0.3366E+01  0.4990E+02
      6.714  0.3811E+01  0.4994E+02
      6.724  0.5367E+01  0.4999E+02
      6.734  0.8014E+01  0.5008E+02
      6.744  0.5685E+01  0.5013E+02
      6.755  0.3218E+01  0.5017E+02
      6.765  0.2677E+01  0.5019E+02
      6.775  0.3237E+01  0.5023E+02
      6.785  0.5183E+01  0.5028E+02
      6.795  0.5716E+01  0.5034E+02
      6.806  0.4583E+01  0.5038E+02
      6.816  0.2447E+01  0.5041E+02
      6.826  0.1816E+01  0.5043E+02
      6.836  0.2595E+01  0.5045E+02
      6.846  0.3237E+01  0.5049E+02
      6.856  0.4066E+01  0.5053E+02
      6.867  0.4287E+01  0.5057E+02
      6.877  0.6381E+01  0.5064E+02
      6.887  0.7119E+01  0.5071E+02
      6.897  0.7231E+01  0.5078E+02
      6.907  0.5792E+01  0.5084E+02
      6.918  0.3545E+01  0.5088E+02
      6.928  0.3838E+01  0.5092E+02
      6.938  0.3756E+01  0.5096E+02
      6.948  0.3687E+01  0.5099E+02
      6.958  0.4921E+01  0.5104E+02
      6.969  0.5923E+01  0.5110E+02
      6.979  0.5175E+01  0.5116E+02
      6.989  0.3761E+01  0.5119E+02
      6.999  0.4037E+01  0.5124E+02
      7.009  0.4657E+01  0.5128E+02
      7.019  0.3814E+01  0.5132E+02
      7.030  0.3273E+01  0.5136E+02
      7.040  0.5426E+01  0.5141E+02
      7.050  0.6438E+01  0.5148E+02
      7.060  0.4964E+01  0.5153E+02
      7.070  0.3990E+01  0.5157E+02
      7.081  0.3650E+01  0.5160E+02
      7.091  0.4564E+01  0.5165E+02
      7.101  0.4476E+01  0.5170E+02
      7.111  0.3691E+01  0.5173E+02
      7.121  0.2573E+01  0.5176E+02
      7.132  0.1847E+01  0.5178E+02
      7.142  0.3388E+01  0.5181E+02
      7.152  0.4786E+01  0.5186E+02
      7.162  0.3926E+01  0.5190E+02
      7.172  0.5275E+01  0.5196E+02
      7.182  0.6467E+01  0.5202E+02
      7.193  0.6183E+01  0.5209E+02
      7.203  0.5108E+01  0.5214E+02
      7.213  0.2998E+01  0.5217E+02
      7.223  0.3019E+01  0.5220E+02
      7.233  0.6585E+01  0.5227E+02
      7.244  0.7000E+01  0.5234E+02
      7.254  0.4559E+01  0.5238E+02
      7.264  0.4598E+01  0.5243E+02
      7.274  0.7145E+01  0.5250E+02
      7.284  0.9082E+01  0.5260E+02
      7.294  0.6907E+01  0.5267E+02
      7.305  0.5156E+01  0.5272E+02
      7.315  0.5218E+01  0.5277E+02
      7.325  0.4618E+01  0.5282E+02
      7.335  0.5716E+01  0.5288E+02
      7.345  0.5392E+01  0.5293E+02
      7.356  0.5018E+01  0.5298E+02
      7.366  0.4566E+01  0.5303E+02
      7.376  0.4974E+01  0.5308E+02
      7.386  0.3846E+01  0.5312E+02
      7.396  0.2737E+01  0.5315E+02
      7.407  0.4350E+01  0.5319E+02
      7.417  0.3371E+01  0.5323E+02
      7.427  0.1498E+01  0.5324E+02
      7.437  0.3090E+01  0.5327E+02
      7.447  0.3895E+01  0.5331E+02
      7.457  0.3514E+01  0.5335E+02
      7.468  0.4023E+01  0.5339E+02
      7.478  0.5636E+01  0.5345E+02
      7.488  0.4833E+01  0.5350E+02
      7.498  0.3926E+01  0.5354E+02
      7.508  0.5549E+01  0.5359E+02
      7.519  0.8253E+01  0.5368E+02
      7.529  0.6084E+01  0.5374E+02
      7.539  0.3251E+01  0.5377E+02
      7.549  0.4037E+01  0.5381E+02
      7.559  0.5262E+01  0.5387E+02
      7.569  0.4248E+01  0.5391E+02
      7.580  0.2975E+01  0.5394E+02
      7.590  0.2216E+01  0.5396E+02
      7.600  0.1871E+01  0.5398E+02
      7.610  0.1718E+01  0.5400E+02
      7.620  0.2510E+01  0.5402E+02
      7.631  0.4288E+01  0.5407E+02
      7.641  0.3437E+01  0.5410E+02
      7.651  0.2738E+01  0.5413E+02
      7.661  0.3650E+01  0.5417E+02
      7.671  0.5131E+01  0.5422E+02
      7.682  0.4909E+01  0.5427E+02
      7.692  0.4278E+01  0.5431E+02
      7.702  0.3376E+01  0.5435E+02
      7.712  0.3943E+01  0.5439E+02
      7.722  0.3219E+01  0.5442E+02
      7.732  0.2574E+01  0.5445E+02
      7.743  0.4431E+01  0.5449E+02
      7.753  0.4849E+01  0.5454E+02
      7.763  0.4047E+01  0.5458E+02
      7.773  0.2394E+01  0.5461E+02
      7.783  0.1149E+01  0.5462E+02
      7.794  0.7701E+00  0.5463E+02
      7.804  0.1826E+01  0.5465E+02
      7.814  0.3125E+01  0.5468E+02
      7.824  0.2695E+01  0.5470E+02
      7.834  0.2177E+01  0.5473E+02
      7.845  0.2111E+01  0.5475E+02
      7.855  0.2653E+01  0.5478E+02
      7.865  0.3684E+01  0.5481E+02
      7.875  0.5285E+01  0.5487E+02
      7.885  0.5811E+01  0.5493E+02
      7.895  0.4008E+01  0.5497E+02
      7.906  0.4569E+01  0.5501E+02
      7.916  0.4552E+01  0.5506E+02
      7.926  0.3438E+01  0.5509E+02
      7.936  0.2930E+01  0.5512E+02
      7.946  0.1421E+01  0.5514E+02
      7.957  0.5378E+00  0.5514E+02
      7.967  0.1042E+01  0.5516E+02
      7.977  0.1745E+01  0.5517E+02
      7.987  0.2592E+01  0.5520E+02
      7.997  0.3547E+01  0.5524E+02
      8.007  0.4649E+01  0.5528E+02
      8.018  0.5758E+01  0.5534E+02
      8.028  0.3974E+01  0.5538E+02
      8.038  0.1629E+01  0.5540E+02
      8.048  0.1273E+01  0.5541E+02
      8.058  0.3254E+01  0.5544E+02
      8.069  0.5043E+01  0.5550E+02
      8.079  0.5432E+01  0.5555E+02
      8.089  0.5054E+01  0.5560E+02
      8.099  0.5191E+01  0.5566E+02
      8.109  0.6644E+01  0.5572E+02
      8.120  0.5848E+01  0.5578E+02
      8.130  0.3725E+01  0.5582E+02
      8.140  0.2145E+01  0.5584E+02
      8.150  0.2997E+01  0.5587E+02
      8.160  0.4014E+01  0.5591E+02
      8.170  0.3420E+01  0.5595E+02
      8.181  0.2846E+01  0.5598E+02
      8.191  0.3348E+01  0.5601E+02
      8.201  0.5488E+01  0.5607E+02
      8.211  0.5203E+01  0.5612E+02
      8.221  0.4375E+01  0.5617E+02
      8.232  0.3906E+01  0.5621E+02
      8.242  0.3100E+01  0.5624E+02
      8.252  0.3022E+01  0.5627E+02
      8.262  0.4651E+01  0.5632E+02
      8.272  0.5103E+01  0.5637E+02
      8.282  0.2344E+01  0.5639E+02
      8.293  0.2694E+01  0.5642E+02
      8.303  0.3026E+01  0.5645E+02
      8.313  0.1832E+01  0.5647E+02
      8.323  0.2502E+01  0.5649E+02
      8.333  0.5014E+01  0.5654E+02
      8.344  0.6025E+01  0.5661E+02
      8.354  0.5567E+01  0.5666E+02
      8.364  0.2390E+01  0.5669E+02
      8.374  0.9625E+00  0.5670E+02
      8.384  0.3134E+01  0.5673E+02
      8.395  0.4557E+01  0.5678E+02
      8.405  0.3530E+01  0.5681E+02
      8.415  0.4097E+01  0.5685E+02
      8.425  0.4454E+01  0.5690E+02
      8.435  0.4239E+01  0.5694E+02
      8.445  0.4000E+01  0.5698E+02
      8.456  0.5383E+01  0.5704E+02
      8.466  0.5449E+01  0.5709E+02
      8.476  0.4866E+01  0.5714E+02
      8.486  0.7322E+01  0.5722E+02
      8.496  0.4770E+01  0.5727E+02
      8.507  0.4360E+01  0.5731E+02
      8.517  0.4426E+01  0.5735E+02
      8.527  0.3114E+01  0.5739E+02
      8.537  0.3964E+01  0.5743E+02
      8.547  0.4440E+01  0.5747E+02
      8.557  0.3180E+01  0.5750E+02
      8.568  0.1957E+01  0.5752E+02
      8.578  0.1917E+01  0.5754E+02
      8.588  0.2044E+01  0.5756E+02
      8.598  0.3277E+01  0.5760E+02
      8.608  0.5350E+01  0.5765E+02
      8.619  0.4606E+01  0.5770E+02
      8.629  0.4721E+01  0.5775E+02
      8.639  0.6485E+01  0.5781E+02
      8.649  0.5712E+01  0.5787E+02
      8.659  0.5832E+01  0.5793E+02
      8.670  0.6448E+01  0.5800E+02
      8.680  0.4178E+01  0.5804E+02
      8.690  0.2741E+01  0.5807E+02
      8.700  0.3116E+01  0.5810E+02
      8.710  0.4575E+01  0.5815E+02
      8.720  0.4200E+01  0.5819E+02
      8.731  0.3147E+01  0.5822E+02
      8.741  0.2747E+01  0.5825E+02
      8.751  0.2361E+01  0.5827E+02
      8.761  0.2807E+01  0.5830E+02
      8.771  0.3665E+01  0.5834E+02
      8.782  0.4258E+01  0.5838E+02
      8.792  0.3719E+01  0.5842E+02
      8.802  0.5381E+01  0.5847E+02
      8.812  0.6322E+01  0.5854E+02
      8.822  0.5111E+01  0.5859E+02
      8.833  0.3957E+01  0.5863E+02
      8.843  0.3484E+01  0.5867E+02
      8.853  0.4949E+01  0.5872E+02
      8.863  0.5087E+01  0.5877E+02
      8.873  0.4423E+01  0.5881E+02
      8.883  0.5214E+01  0.5887E+02
      8.894  0.5754E+01  0.5893E+02
      8.904  0.6689E+01  0.5899E+02
      8.914  0.6938E+01  0.5906E+02
      8.924  0.4824E+01  0.5911E+02
      8.934  0.6173E+01  0.5918E+02
      8.945  0.8982E+01  0.5927E+02
      8.955  0.6686E+01  0.5934E+02
      8.965  0.3425E+01  0.5937E+02
      8.975  0.5023E+01  0.5942E+02
      8.985  0.5959E+01  0.5948E+02
      8.995  0.4439E+01  0.5953E+02
      9.006  0.4436E+01  0.5957E+02
      9.016  0.5914E+01  0.5963E+02
      9.026  0.5676E+01  0.5969E+02
      9.036  0.5736E+01  0.5975E+02
      9.046  0.5794E+01  0.5981E+02
      9.057  0.5253E+01  0.5986E+02
      9.067  0.5431E+01  0.5992E+02
      9.077  0.5380E+01  0.5997E+02
      9.087  0.5836E+01  0.6003E+02
      9.097  0.4896E+01  0.6008E+02
      9.108  0.5775E+01  0.6014E+02
      9.118  0.5916E+01  0.6020E+02
      9.128  0.6359E+01  0.6027E+02
      9.138  0.6937E+01  0.6034E+02
      9.148  0.7671E+01  0.6041E+02
      9.158  0.5057E+01  0.6047E+02
      9.169  0.2020E+01  0.6049E+02
      9.179  0.3020E+01  0.6052E+02
      9.189  0.5124E+01  0.6057E+02
      9.199  0.6362E+01  0.6063E+02
      9.209  0.5515E+01  0.6069E+02
      9.220  0.3330E+01  0.6072E+02
      9.230  0.4142E+01  0.6077E+02
      9.240  0.5765E+01  0.6083E+02
      9.250  0.5657E+01  0.6088E+02
      9.260  0.6347E+01  0.6095E+02
      9.270  0.7142E+01  0.6102E+02
      9.281  0.6022E+01  0.6108E+02
      9.291  0.4661E+01  0.6113E+02
      9.301  0.2960E+01  0.6116E+02
      9.311  0.3805E+01  0.6120E+02
      9.321  0.4461E+01  0.6124E+02
      9.332  0.3772E+01  0.6128E+02
      9.342  0.6570E+01  0.6135E+02
      9.352  0.6804E+01  0.6142E+02
      9.362  0.3463E+01  0.6145E+02
      9.372  0.4392E+01  0.6150E+02
      9.383  0.6058E+01  0.6156E+02
      9.393  0.5131E+01  0.6161E+02
      9.403  0.4993E+01  0.6166E+02
      9.413  0.4532E+01  0.6171E+02
      9.423  0.4127E+01  0.6175E+02
      9.433  0.4463E+01  0.6180E+02
      9.444  0.4090E+01  0.6184E+02
      9.454  0.3174E+01  0.6187E+02
      9.464  0.5869E+01  0.6193E+02
      9.474  0.6349E+01  0.6199E+02
      9.484  0.3735E+01  0.6203E+02
      9.495  0.2830E+01  0.6206E+02
      9.505  0.3951E+01  0.6210E+02
      9.515  0.4767E+01  0.6215E+02
      9.525  0.3317E+01  0.6218E+02
      9.535  0.2774E+01  0.6221E+02
      9.545  0.4804E+01  0.6226E+02
      9.556  0.7604E+01  0.6234E+02
      9.566  0.7795E+01  0.6242E+02
      9.576  0.6095E+01  0.6248E+02
      9.586  0.5186E+01  0.6253E+02
      9.596  0.4134E+01  0.6258E+02
      9.607  0.3667E+01  0.6261E+02
      9.617  0.5506E+01  0.6267E+02
      9.627  0.6430E+01  0.6273E+02
      9.637  0.5471E+01  0.6279E+02
      9.647  0.5023E+01  0.6284E+02
      9.658  0.6825E+01  0.6291E+02
      9.668  0.7283E+01  0.6298E+02
      9.678  0.5416E+01  0.6304E+02
      9.688  0.3350E+01  0.6307E+02
      9.698  0.4317E+01  0.6312E+02
      9.708  0.6521E+01  0.6318E+02
      9.719  0.5490E+01  0.6324E+02
      9.729  0.3478E+01  0.6328E+02
      9.739  0.4743E+01  0.6332E+02
      9.749  0.6069E+01  0.6339E+02
      9.759  0.5560E+01  0.6344E+02
      9.770  0.4794E+01  0.6349E+02
      9.780  0.4857E+01  0.6354E+02
      9.790  0.5378E+01  0.6360E+02
      9.800  0.6025E+01  0.6366E+02
      9.810  0.4870E+01  0.6371E+02
      9.821  0.5283E+01  0.6376E+02
      9.831  0.5999E+01  0.6382E+02
      9.841  0.4038E+01  0.6386E+02
      9.851  0.4355E+01  0.6391E+02
      9.861  0.6342E+01  0.6397E+02
      9.871  0.7635E+01  0.6405E+02
      9.882  0.5479E+01  0.6411E+02
      9.892  0.4256E+01  0.6415E+02
      9.902  0.5529E+01  0.6420E+02
      9.912  0.4675E+01  0.6425E+02
      9.922  0.4332E+01  0.6430E+02
      9.933  0.3282E+01  0.6433E+02
      9.943  0.2495E+01  0.6436E+02
      9.953  0.4783E+01  0.6440E+02
      9.963  0.6237E+01  0.6447E+02
      9.973  0.3384E+01  0.6450E+02
      9.983  0.2254E+01  0.6453E+02
      9.994  0.2258E+01  0.6455E+02
     10.004  0.1563E+01  0.6456E+02
     10.014  0.1424E+01  0.6458E+02
     10.024  0.2530E+01  0.6460E+02
     10.034  0.3597E+01  0.6464E+02
     10.045  0.3831E+01  0.6468E+02
     10.055  0.4409E+01  0.6472E+02
     10.065  0.3538E+01  0.6476E+02
     10.075  0.4038E+01  0.6480E+02
     10.085  0.6352E+01  0.6487E+02
     10.096  0.5698E+01  0.6492E+02
     10.106  0.4424E+01  0.6497E+02
     10.116  0.5755E+01  0.6503E+02
     10.126  0.6107E+01  0.6509E+02
     10.136  0.6228E+01  0.6515E+02
     10.146  0.6430E+01  0.6522E+02
     10.157  0.6278E+01  0.6528E+02
     10.167  0.5972E+01  0.6534E+02
     10.177  0.5778E+01  0.6540E+02
     10.187  0.3765E+01  0.6544E+02
     10.197  0.4280E+01  0.6549E+02
     10.208  0.5658E+01  0.6554E+02
     10.218  0.6274E+01  0.6561E+02
     10.228  0.5425E+01  0.6566E+02
     10.238  0.4920E+01  0.6571E+02
     10.248  0.6064E+01  0.6577E+02
     10.258  0.5896E+01  0.6583E+02
     10.269  0.5426E+01  0.6589E+02
     10.279  0.4279E+01  0.6593E+02
     10.289  0.3759E+01  0.6597E+02
     10.299  0.3838E+01  0.6601E+02
     10.309  0.3790E+01  0.6605E+02
     10.320  0.3185E+01  0.6608E+02
     10.330  0.3279E+01  0.6611E+02
     10.340  0.1542E+01  0.6613E+02
     10.350  0.1972E+01  0.6615E+02
     10.360  0.3791E+01  0.6619E+02
     10.371  0.5143E+01  0.6624E+02
     10.381  0.6150E+01  0.6630E+02
     10.391  0.6916E+01  0.6637E+02
     10.401  0.5359E+01  0.6643E+02
     10.411  0.4492E+01  0.6647E+02
     10.421  0.4887E+01  0.6652E+02
     10.432  0.5206E+01  0.6658E+02
     10.442  0.5473E+01  0.6663E+02
     10.452  0.7746E+01  0.6671E+02
     10.462  0.8295E+01  0.6680E+02
     10.472  0.6879E+01  0.6687E+02
     10.483  0.6393E+01  0.6693E+02
     10.493  0.6610E+01  0.6700E+02
     10.503  0.6268E+01  0.6706E+02
     10.513  0.4892E+01  0.6711E+02
     10.523  0.3834E+01  0.6715E+02
     10.533  0.4236E+01  0.6720E+02
     10.544  0.5171E+01  0.6725E+02
     10.554  0.5351E+01  0.6730E+02
     10.564  0.3436E+01  0.6734E+02
     10.574  0.3174E+01  0.6737E+02
     10.584  0.3120E+01  0.6740E+02
     10.595  0.5015E+01  0.6745E+02
     10.605  0.4848E+01  0.6750E+02
     10.615  0.5154E+01  0.6755E+02
     10.625  0.5138E+01  0.6761E+02
     10.635  0.4628E+01  0.6765E+02
     10.646  0.4855E+01  0.6770E+02
     10.656  0.4928E+01  0.6775E+02
     10.666  0.3223E+01  0.6779E+02
     10.676  0.2607E+01  0.6781E+02
     10.686  0.1720E+01  0.6783E+02
     10.696  0.1249E+01  0.6784E+02
     10.707  0.1910E+01  0.6786E+02
     10.717  0.3283E+01  0.6790E+02
     10.727  0.5945E+01  0.6796E+02
     10.737  0.7061E+01  0.6803E+02
     10.747  0.4355E+01  0.6807E+02
     10.758  0.2296E+01  0.6810E+02
     10.768  0.3115E+01  0.6813E+02
     10.778  0.4058E+01  0.6817E+02
     10.788  0.3454E+01  0.6820E+02
     10.798  0.3897E+01  0.6824E+02
     10.809  0.3595E+01  0.6828E+02
     10.819  0.1929E+01  0.6830E+02
     10.829  0.6966E+00  0.6831E+02
     10.839  0.1336E+01  0.6832E+02
     10.849  0.2140E+01  0.6834E+02
     10.859  0.3362E+01  0.6838E+02
     10.870  0.3852E+01  0.6842E+02
     10.880  0.5378E+01  0.6847E+02
     10.890  0.5552E+01  0.6853E+02
     10.900  0.5065E+01  0.6858E+02
     10.910  0.4713E+01  0.6863E+02
     10.921  0.4518E+01  0.6867E+02
     10.931  0.3882E+01  0.6871E+02
     10.941  0.4788E+01  0.6876E+02
     10.951  0.5780E+01  0.6882E+02
     10.961  0.4476E+01  0.6887E+02
     10.971  0.3541E+01  0.6890E+02
     10.982  0.1766E+01  0.6892E+02
     10.992  0.1347E+01  0.6893E+02
     11.002  0.3096E+01  0.6897E+02
     11.012  0.5260E+01  0.6902E+02
     11.022  0.9013E+01  0.6911E+02
     11.033  0.9866E+01  0.6921E+02
     11.043  0.6490E+01  0.6928E+02
     11.053  0.3797E+01  0.6932E+02
     11.063  0.4175E+01  0.6936E+02
     11.073  0.6171E+01  0.6942E+02
     11.084  0.5164E+01  0.6947E+02
     11.094  0.6201E+01  0.6954E+02
     11.104  0.7812E+01  0.6962E+02
     11.114  0.5694E+01  0.6967E+02
     11.124  0.4917E+01  0.6972E+02
     11.134  0.4907E+01  0.6977E+02
     11.145  0.4328E+01  0.6982E+02
     11.155  0.3114E+01  0.6985E+02
     11.165  0.3579E+01  0.6989E+02
     11.175  0.4277E+01  0.6993E+02
     11.185  0.4822E+01  0.6998E+02
     11.196  0.5814E+01  0.7004E+02
     11.206  0.7238E+01  0.7011E+02
     11.216  0.9521E+01  0.7021E+02
     11.226  0.7812E+01  0.7029E+02
     11.236  0.5757E+01  0.7035E+02
     11.246  0.4927E+01  0.7040E+02
     11.257  0.5840E+01  0.7046E+02
     11.267  0.6450E+01  0.7052E+02
     11.277  0.6205E+01  0.7059E+02
     11.287  0.5230E+01  0.7064E+02
     11.297  0.6220E+01  0.7070E+02
     11.308  0.7113E+01  0.7078E+02
     11.318  0.5593E+01  0.7083E+02
     11.328  0.3283E+01  0.7087E+02
     11.338  0.4057E+01  0.7091E+02
     11.348  0.6014E+01  0.7097E+02
     11.359  0.5725E+01  0.7103E+02
     11.369  0.6285E+01  0.7109E+02
     11.379  0.5208E+01  0.7114E+02
     11.389  0.3917E+01  0.7118E+02
     11.399  0.4348E+01  0.7123E+02
     11.409  0.4310E+01  0.7127E+02
     11.420  0.6413E+01  0.7134E+02
     11.430  0.7284E+01  0.7141E+02
     11.440  0.5037E+01  0.7146E+02
     11.450  0.3424E+01  0.7150E+02
     11.460  0.3959E+01  0.7154E+02
     11.471  0.4169E+01  0.7158E+02
     11.481  0.5726E+01  0.7164E+02
     11.491  0.6294E+01  0.7170E+02
     11.501  0.5101E+01  0.7175E+02
     11.511  0.4083E+01  0.7180E+02
     11.522  0.3559E+01  0.7183E+02
     11.532  0.3003E+01  0.7186E+02
     11.542  0.3585E+01  0.7190E+02
     11.552  0.3672E+01  0.7194E+02
     11.562  0.4805E+01  0.7199E+02
     11.572  0.6328E+01  0.7205E+02
     11.583  0.4823E+01  0.7210E+02
     11.593  0.3744E+01  0.7214E+02
     11.603  0.4394E+01  0.7218E+02
     11.613  0.4972E+01  0.7223E+02
     11.623  0.4113E+01  0.7228E+02
     11.634  0.2820E+01  0.7230E+02
     11.644  0.4430E+01  0.7235E+02
     11.654  0.4767E+01  0.7240E+02
     11.664  0.4790E+01  0.7245E+02
     11.674  0.6083E+01  0.7251E+02
     11.684  0.7156E+01  0.7258E+02
     11.695  0.6107E+01  0.7264E+02
     11.705  0.3225E+01  0.7268E+02
     11.715  0.2748E+01  0.7270E+02
     11.725  0.4995E+01  0.7276E+02
     11.735  0.6932E+01  0.7283E+02
     11.746  0.6360E+01  0.7289E+02
     11.756  0.5220E+01  0.7294E+02
     11.766  0.6228E+01  0.7301E+02
     11.776  0.7081E+01  0.7308E+02
     11.786  0.4970E+01  0.7313E+02
     11.797  0.4720E+01  0.7318E+02
     11.807  0.6318E+01  0.7324E+02
     11.817  0.3910E+01  0.7328E+02
     11.827  0.2748E+01  0.7331E+02
     11.837  0.4981E+01  0.7336E+02
     11.847  0.6056E+01  0.7342E+02
     11.858  0.5243E+01  0.7348E+02
     11.868  0.5456E+01  0.7353E+02
     11.878  0.5007E+01  0.7358E+02
     11.888  0.4714E+01  0.7363E+02
     11.898  0.4885E+01  0.7368E+02
     11.909  0.4890E+01  0.7373E+02
     11.919  0.4602E+01  0.7378E+02
     11.929  0.6833E+01  0.7385E+02
     11.939  0.8214E+01  0.7393E+02
     11.949  0.8170E+01  0.7401E+02
     11.959  0.5954E+01  0.7407E+02
     11.970  0.6585E+01  0.7414E+02
     11.980  0.5805E+01  0.7420E+02
     11.990  0.6080E+01  0.7426E+02
     12.000  0.7455E+01  0.7434E+02
     12.010  0.5866E+01  0.7440E+02
     12.021  0.4676E+01  0.7445E+02
     12.031  0.4161E+01  0.7449E+02
     12.041  0.2611E+01  0.7451E+02
     12.051  0.3366E+01  0.7455E+02
     12.061  0.4495E+01  0.7459E+02
     12.072  0.6361E+01  0.7466E+02
     12.082  0.8295E+01  0.7474E+02
     12.092  0.7504E+01  0.7482E+02
     12.102  0.6457E+01  0.7489E+02
     12.112  0.5975E+01  0.7495E+02
     12.122  0.6872E+01  0.7502E+02
     12.133  0.9278E+01  0.7511E+02
     12.143  0.7089E+01  0.7518E+02
     12.153  0.5620E+01  0.7524E+02
     12.163  0.6329E+01  0.7531E+02
     12.173  0.6486E+01  0.7537E+02
     12.184  0.5426E+01  0.7543E+02
     12.194  0.3976E+01  0.7547E+02
     12.204  0.3207E+01  0.7550E+02
     12.214  0.3414E+01  0.7553E+02
     12.224  0.3748E+01  0.7557E+02
     12.234  0.7115E+01  0.7565E+02
     12.245  0.6883E+01  0.7572E+02
     12.255  0.4295E+01  0.7576E+02
     12.265  0.4642E+01  0.7581E+02
     12.275  0.5964E+01  0.7587E+02
     12.285  0.6448E+01  0.7593E+02
     12.296  0.6421E+01  0.7600E+02
     12.306  0.6847E+01  0.7607E+02
     12.316  0.6078E+01  0.7613E+02
     12.326  0.5452E+01  0.7619E+02
     12.336  0.6087E+01  0.7625E+02
     12.347  0.6053E+01  0.7631E+02
     12.357  0.5078E+01  0.7636E+02
     12.367  0.5000E+01  0.7641E+02
     12.377  0.3995E+01  0.7645E+02
     12.387  0.4817E+01  0.7650E+02
     12.397  0.5749E+01  0.7656E+02
     12.408  0.5807E+01  0.7662E+02
     12.418  0.6815E+01  0.7669E+02
     12.428  0.6076E+01  0.7675E+02
     12.438  0.4802E+01  0.7680E+02
     12.448  0.5106E+01  0.7685E+02
     12.459  0.6188E+01  0.7691E+02
     12.469  0.5041E+01  0.7697E+02
     12.479  0.4449E+01  0.7701E+02
     12.489  0.4881E+01  0.7706E+02
     12.499  0.4202E+01  0.7710E+02
     12.510  0.4517E+01  0.7715E+02
     12.520  0.7046E+01  0.7722E+02
     12.530  0.7445E+01  0.7730E+02
     12.540  0.5262E+01  0.7735E+02
     12.550  0.5014E+01  0.7740E+02
     12.560  0.5862E+01  0.7746E+02
     12.571  0.6364E+01  0.7753E+02
     12.581  0.5380E+01  0.7758E+02
     12.591  0.6063E+01  0.7764E+02
     12.601  0.6483E+01  0.7771E+02
     12.611  0.7023E+01  0.7778E+02
     12.622  0.7560E+01  0.7786E+02
     12.632  0.6129E+01  0.7792E+02
     12.642  0.5049E+01  0.7797E+02
     12.652  0.7529E+01  0.7805E+02
     12.662  0.7885E+01  0.7813E+02
     12.672  0.6769E+01  0.7820E+02
     12.683  0.5880E+01  0.7826E+02
     12.693  0.7858E+01  0.7834E+02
     12.703  0.7930E+01  0.7842E+02
     12.713  0.6487E+01  0.7848E+02
     12.723  0.5021E+01  0.7854E+02
     12.734  0.5165E+01  0.7859E+02
     12.744  0.6971E+01  0.7866E+02
     12.754  0.6944E+01  0.7873E+02
     12.764  0.5134E+01  0.7878E+02
     12.774  0.2739E+01  0.7881E+02
     12.785  0.4268E+01  0.7885E+02
     12.795  0.6265E+01  0.7892E+02
     12.805  0.4861E+01  0.7897E+02
     12.815  0.3839E+01  0.7901E+02
     12.825  0.4061E+01  0.7905E+02
     12.835  0.4429E+01  0.7909E+02
     12.846  0.5612E+01  0.7915E+02
     12.856  0.6260E+01  0.7921E+02
     12.866  0.4995E+01  0.7926E+02
     12.876  0.4362E+01  0.7931E+02
     12.886  0.5409E+01  0.7936E+02
     12.897  0.6691E+01  0.7943E+02
     12.907  0.6446E+01  0.7950E+02
     12.917  0.5491E+01  0.7955E+02
     12.927  0.5554E+01  0.7961E+02
     12.937  0.5432E+01  0.7967E+02
     12.947  0.8193E+01  0.7975E+02
     12.958  0.7590E+01  0.7983E+02
     12.968  0.4912E+01  0.7988E+02
     12.978  0.4237E+01  0.7992E+02
     12.988  0.3480E+01  0.7995E+02
     12.998  0.2828E+01  0.7998E+02
     13.009  0.5480E+01  0.8004E+02
     13.019  0.7093E+01  0.8011E+02
     13.029  0.5620E+01  0.8017E+02
     13.039  0.5604E+01  0.8023E+02
     13.049  0.6491E+01  0.8029E+02
     13.060  0.6178E+01  0.8035E+02
     13.070  0.5251E+01  0.8041E+02
     13.080  0.5258E+01  0.8046E+02
     13.090  0.6505E+01  0.8053E+02
     13.100  0.6266E+01  0.8059E+02
     13.110  0.7136E+01  0.8066E+02
     13.121  0.5607E+01  0.8072E+02
     13.131  0.4583E+01  0.8077E+02
     13.141  0.3844E+01  0.8081E+02
     13.151  0.4761E+01  0.8086E+02
     13.161  0.6585E+01  0.8092E+02
     13.172  0.7567E+01  0.8100E+02
     13.182  0.8630E+01  0.8109E+02
     13.192  0.8722E+01  0.8118E+02
     13.202  0.9874E+01  0.8128E+02
     13.212  0.9835E+01  0.8138E+02
     13.222  0.7645E+01  0.8146E+02
     13.233  0.5440E+01  0.8151E+02
     13.243  0.4678E+01  0.8156E+02
     13.253  0.5103E+01  0.8161E+02
     13.263  0.4959E+01  0.8166E+02
     13.273  0.3829E+01  0.8170E+02
     13.284  0.4044E+01  0.8174E+02
     13.294  0.5612E+01  0.8180E+02
     13.304  0.4745E+01  0.8185E+02
     13.314  0.5592E+01  0.8190E+02
     13.324  0.5837E+01  0.8196E+02
     13.335  0.3789E+01  0.8200E+02
     13.345  0.3694E+01  0.8204E+02
     13.355  0.4360E+01  0.8208E+02
     13.365  0.6010E+01  0.8214E+02
     13.375  0.7162E+01  0.8222E+02
     13.385  0.5752E+01  0.8228E+02
     13.396  0.5057E+01  0.8233E+02
     13.406  0.5167E+01  0.8238E+02
     13.416  0.4455E+01  0.8243E+02
     13.426  0.7049E+01  0.8250E+02
     13.436  0.8916E+01  0.8259E+02
     13.447  0.6969E+01  0.8266E+02
     13.457  0.4172E+01  0.8270E+02
     13.467  0.2301E+01  0.8273E+02
     13.477  0.4835E+01  0.8277E+02
     13.487  0.1048E+02  0.8288E+02
     13.498  0.1033E+02  0.8299E+02
     13.508  0.7261E+01  0.8306E+02
     13.518  0.5995E+01  0.8312E+02
     13.528  0.6024E+01  0.8318E+02
     13.538  0.5191E+01  0.8324E+02
     13.548  0.5713E+01  0.8329E+02
     13.559  0.6016E+01  0.8336E+02
     13.569  0.3864E+01  0.8339E+02
     13.579  0.3497E+01  0.8343E+02
     13.589  0.4807E+01  0.8348E+02
     13.599  0.6367E+01  0.8354E+02
     13.610  0.5421E+01  0.8360E+02
     13.620  0.4758E+01  0.8365E+02
     13.630  0.3965E+01  0.8369E+02
     13.640  0.4023E+01  0.8373E+02
     13.650  0.4219E+01  0.8377E+02
     13.660  0.5458E+01  0.8383E+02
     13.671  0.6240E+01  0.8389E+02
     13.681  0.7361E+01  0.8397E+02
     13.691  0.6834E+01  0.8404E+02
     13.701  0.4920E+01  0.8409E+02
     13.711  0.3630E+01  0.8412E+02
     13.722  0.4307E+01  0.8417E+02
     13.732  0.4398E+01  0.8421E+02
     13.742  0.4232E+01  0.8425E+02
     13.752  0.5841E+01  0.8431E+02
     13.762  0.6630E+01  0.8438E+02
     13.773  0.8046E+01  0.8446E+02
     13.783  0.8758E+01  0.8455E+02
     13.793  0.8502E+01  0.8464E+02
     13.803  0.9327E+01  0.8473E+02
     13.813  0.9883E+01  0.8484E+02
     13.823  0.9510E+01  0.8493E+02
     13.834  0.5023E+01  0.8498E+02
     13.844  0.1832E+01  0.8500E+02
     13.854  0.2146E+01  0.8502E+02
     13.864  0.3648E+01  0.8506E+02
     13.874  0.4451E+01  0.8511E+02
     13.885  0.2520E+01  0.8513E+02
     13.895  0.4576E+01  0.8518E+02
     13.905  0.7848E+01  0.8526E+02
     13.915  0.5529E+01  0.8531E+02
     13.925  0.2726E+01  0.8534E+02
     13.935  0.3038E+01  0.8537E+02
     13.946  0.4138E+01  0.8542E+02
     13.956  0.5644E+01  0.8547E+02
     13.966  0.7576E+01  0.8555E+02
     13.976  0.8320E+01  0.8564E+02
     13.986  0.7591E+01  0.8571E+02
     13.997  0.5807E+01  0.8577E+02
     14.007  0.5149E+01  0.8582E+02
     14.017  0.3996E+01  0.8586E+02
     14.027  0.4490E+01  0.8591E+02
     14.037  0.6784E+01  0.8598E+02
     14.048  0.6745E+01  0.8605E+02
     14.058  0.5641E+01  0.8611E+02
     14.068  0.5317E+01  0.8616E+02
     14.078  0.5317E+01  0.8621E+02
     14.088  0.5146E+01  0.8627E+02
     14.098  0.2922E+01  0.8630E+02
     14.109  0.3145E+01  0.8633E+02
     14.119  0.4327E+01  0.8637E+02
     14.129  0.5062E+01  0.8642E+02
     14.139  0.5274E+01  0.8648E+02
     14.149  0.5140E+01  0.8653E+02
     14.160  0.5744E+01  0.8659E+02
     14.170  0.5629E+01  0.8665E+02
     14.180  0.5476E+01  0.8670E+02
     14.190  0.5611E+01  0.8676E+02
     14.200  0.5448E+01  0.8681E+02
     14.210  0.3382E+01  0.8685E+02
     14.221  0.2427E+01  0.8687E+02
     14.231  0.3166E+01  0.8691E+02
     14.241  0.4220E+01  0.8695E+02
     14.251  0.6536E+01  0.8702E+02
     14.261  0.8171E+01  0.8710E+02
     14.272  0.7120E+01  0.8717E+02
     14.282  0.6805E+01  0.8724E+02
     14.292  0.6833E+01  0.8731E+02
     14.302  0.6092E+01  0.8737E+02
     14.312  0.6822E+01  0.8744E+02
     14.323  0.4635E+01  0.8749E+02
     14.333  0.3160E+01  0.8752E+02
     14.343  0.4704E+01  0.8757E+02
     14.353  0.5153E+01  0.8762E+02
     14.363  0.4002E+01  0.8766E+02
     14.373  0.3672E+01  0.8770E+02
     14.384  0.4053E+01  0.8774E+02
     14.394  0.5361E+01  0.8780E+02
     14.404  0.4998E+01  0.8785E+02
     14.414  0.3184E+01  0.8788E+02
     14.424  0.3337E+01  0.8791E+02
     14.435  0.4241E+01  0.8796E+02
     14.445  0.6325E+01  0.8802E+02
     14.455  0.6198E+01  0.8808E+02
     14.465  0.5010E+01  0.8813E+02
     14.475  0.5872E+01  0.8819E+02
     14.486  0.4490E+01  0.8824E+02
     14.496  0.3035E+01  0.8827E+02
     14.506  0.4868E+01  0.8832E+02
     14.516  0.5548E+01  0.8838E+02
     14.526  0.5954E+01  0.8844E+02
     14.536  0.4322E+01  0.8848E+02
     14.547  0.3791E+01  0.8852E+02
     14.557  0.4314E+01  0.8856E+02
     14.567  0.5847E+01  0.8862E+02
     14.577  0.5564E+01  0.8868E+02
     14.587  0.6033E+01  0.8874E+02
     14.598  0.5365E+01  0.8880E+02
     14.608  0.3858E+01  0.8884E+02
     14.618  0.6660E+01  0.8890E+02
     14.628  0.8016E+01  0.8899E+02
     14.638  0.6697E+01  0.8905E+02
     14.648  0.7065E+01  0.8913E+02
     14.659  0.5957E+01  0.8919E+02
     14.669  0.3645E+01  0.8922E+02
     14.679  0.3139E+01  0.8926E+02
     14.689  0.4900E+01  0.8931E+02
     14.699  0.5307E+01  0.8936E+02
     14.710  0.5307E+01  0.8941E+02
     14.720  0.4704E+01  0.8946E+02
     14.730  0.3092E+01  0.8949E+02
     14.740  0.1818E+01  0.8951E+02
     14.750  0.2664E+01  0.8954E+02
     14.761  0.4978E+01  0.8959E+02
     14.771  0.5805E+01  0.8965E+02
     14.781  0.6386E+01  0.8971E+02
     14.791  0.7399E+01  0.8979E+02
     14.801  0.4681E+01  0.8984E+02
     14.811  0.3558E+01  0.8987E+02
     14.822  0.4225E+01  0.8992E+02
     14.832  0.3667E+01  0.8995E+02
     14.842  0.1902E+01  0.8997E+02
     14.852  0.2726E+01  0.9000E+02
     14.862  0.3554E+01  0.9004E+02
     14.873  0.2317E+01  0.9006E+02
     14.883  0.3327E+01  0.9009E+02
     14.893  0.4624E+01  0.9014E+02
     14.903  0.5083E+01  0.9019E+02
     14.913  0.5232E+01  0.9025E+02
     14.923  0.5355E+01  0.9030E+02
     14.934  0.6523E+01  0.9037E+02
     14.944  0.7054E+01  0.9044E+02
     14.954  0.6296E+01  0.9050E+02
     14.964  0.4716E+01  0.9055E+02
     14.974  0.5129E+01  0.9060E+02
     14.985  0.4838E+01  0.9065E+02
     14.995  0.4942E+01  0.9070E+02
     15.005  0.5213E+01  0.9076E+02
     15.015  0.6025E+01  0.9082E+02
     15.025  0.8279E+01  0.9090E+02
     15.036  0.1054E+02  0.9101E+02
     15.046  0.8623E+01  0.9110E+02
     15.056  0.5677E+01  0.9115E+02
     15.066  0.3858E+01  0.9119E+02
     15.076  0.4456E+01  0.9124E+02
     15.086  0.4874E+01  0.9129E+02
     15.097  0.4936E+01  0.9134E+02
     15.107  0.6545E+01  0.9141E+02
     15.117  0.8070E+01  0.9149E+02
     15.127  0.7429E+01  0.9156E+02
     15.137  0.6738E+01  0.9163E+02
     15.148  0.6173E+01  0.9170E+02
     15.158  0.3925E+01  0.9174E+02
     15.168  0.2870E+01  0.9176E+02
     15.178  0.5313E+01  0.9182E+02
     15.188  0.7302E+01  0.9189E+02
     15.199  0.4782E+01  0.9194E+02
     15.209  0.4660E+01  0.9199E+02
     15.219  0.5022E+01  0.9204E+02
     15.229  0.5721E+01  0.9210E+02
     15.239  0.6594E+01  0.9217E+02
     15.249  0.7506E+01  0.9224E+02
     15.260  0.7414E+01  0.9232E+02
     15.270  0.6741E+01  0.9239E+02
     15.280  0.5713E+01  0.9244E+02
     15.290  0.5593E+01  0.9250E+02
     15.300  0.4178E+01  0.9254E+02
     15.311  0.3380E+01  0.9258E+02
     15.321  0.4433E+01  0.9262E+02
     15.331  0.4085E+01  0.9267E+02
     15.341  0.4218E+01  0.9271E+02
     15.351  0.5915E+01  0.9277E+02
     15.361  0.6705E+01  0.9284E+02
     15.372  0.5861E+01  0.9290E+02
     15.382  0.6902E+01  0.9297E+02
     15.392  0.8500E+01  0.9305E+02
     15.402  0.7486E+01  0.9313E+02
     15.412  0.4762E+01  0.9318E+02
     15.423  0.5419E+01  0.9323E+02
     15.433  0.8300E+01  0.9332E+02
     15.443  0.9971E+01  0.9342E+02
     15.453  0.8826E+01  0.9351E+02
     15.463  0.7366E+01  0.9358E+02
     15.474  0.7094E+01  0.9366E+02
     15.484  0.6434E+01  0.9372E+02
     15.494  0.4751E+01  0.9377E+02
     15.504  0.4180E+01  0.9381E+02
     15.514  0.6678E+01  0.9388E+02
     15.524  0.7802E+01  0.9396E+02
     15.535  0.5547E+01  0.9402E+02
     15.545  0.5992E+01  0.9408E+02
     15.555  0.6649E+01  0.9415E+02
     15.565  0.5997E+01  0.9421E+02
     15.575  0.4771E+01  0.9426E+02
     15.586  0.5341E+01  0.9431E+02
     15.596  0.6370E+01  0.9437E+02
     15.606  0.5695E+01  0.9443E+02
     15.616  0.5800E+01  0.9449E+02
     15.626  0.5523E+01  0.9455E+02
     15.636  0.5402E+01  0.9460E+02
     15.647  0.5044E+01  0.9465E+02
     15.657  0.4562E+01  0.9470E+02
     15.667  0.4102E+01  0.9474E+02
     15.677  0.4892E+01  0.9479E+02
     15.687  0.7785E+01  0.9487E+02
     15.698  0.9325E+01  0.9497E+02
     15.708  0.7654E+01  0.9504E+02
     15.718  0.5208E+01  0.9510E+02
     15.728  0.3063E+01  0.9513E+02
     15.738  0.2915E+01  0.9516E+02
     15.749  0.3671E+01  0.9520E+02
     15.759  0.4838E+01  0.9525E+02
     15.769  0.6682E+01  0.9531E+02
     15.779  0.6463E+01  0.9538E+02
     15.789  0.4432E+01  0.9542E+02
     15.799  0.3726E+01  0.9546E+02
     15.810  0.3163E+01  0.9549E+02
     15.820  0.3604E+01  0.9553E+02
     15.830  0.4878E+01  0.9558E+02
     15.840  0.4684E+01  0.9563E+02
     15.850  0.5054E+01  0.9568E+02
     15.861  0.7103E+01  0.9575E+02
     15.871  0.6732E+01  0.9582E+02
     15.881  0.6875E+01  0.9589E+02
     15.891  0.7698E+01  0.9597E+02
     15.901  0.7380E+01  0.9604E+02
     15.911  0.6078E+01  0.9611E+02
     15.922  0.5250E+01  0.9616E+02
     15.932  0.6158E+01  0.9622E+02
     15.942  0.6493E+01  0.9629E+02
     15.952  0.6990E+01  0.9636E+02
     15.962  0.7204E+01  0.9643E+02
     15.973  0.4382E+01  0.9648E+02
     15.983  0.3318E+01  0.9651E+02
     15.993  0.3837E+01  0.9655E+02
     16.003  0.4008E+01  0.9659E+02
     16.013  0.4005E+01  0.9663E+02
     16.024  0.1733E+01  0.9665E+02
     16.034  0.2883E+01  0.9668E+02
     16.044  0.6641E+01  0.9675E+02
     16.054  0.6104E+01  0.9681E+02
     16.064  0.4897E+01  0.9686E+02
     16.074  0.4354E+01  0.9690E+02
     16.085  0.4288E+01  0.9695E+02
     16.095  0.7134E+01  0.9702E+02
     16.105  0.8149E+01  0.9710E+02
     16.115  0.6331E+01  0.9717E+02
     16.125  0.5669E+01  0.9723E+02
     16.136  0.6717E+01  0.9729E+02
     16.146  0.8223E+01  0.9738E+02
     16.156  0.7981E+01  0.9746E+02
     16.166  0.4853E+01  0.9751E+02
     16.176  0.4046E+01  0.9755E+02
     16.187  0.6154E+01  0.9761E+02
     16.197  0.7873E+01  0.9769E+02
     16.207  0.7754E+01  0.9777E+02
     16.217  0.6284E+01  0.9784E+02
     16.227  0.4441E+01  0.9788E+02
     16.237  0.3723E+01  0.9792E+02
     16.248  0.4289E+01  0.9796E+02
     16.258  0.5977E+01  0.9802E+02
     16.268  0.6801E+01  0.9809E+02
     16.278  0.5047E+01  0.9814E+02
     16.288  0.3191E+01  0.9818E+02
     16.299  0.3182E+01  0.9821E+02
     16.309  0.6530E+01  0.9827E+02
     16.319  0.8516E+01  0.9836E+02
     16.329  0.8693E+01  0.9845E+02
     16.339  0.9287E+01  0.9854E+02
     16.349  0.6629E+01  0.9861E+02
     16.360  0.5466E+01  0.9867E+02
     16.370  0.6049E+01  0.9873E+02
     16.380  0.8015E+01  0.9881E+02
     16.390  0.5545E+01  0.9887E+02
     16.400  0.3153E+01  0.9890E+02
     16.411  0.4477E+01  0.9895E+02
     16.421  0.6079E+01  0.9901E+02
     16.431  0.6343E+01  0.9907E+02
     16.441  0.5412E+01  0.9913E+02
     16.451  0.4284E+01  0.9917E+02
     16.462  0.5907E+01  0.9923E+02
     16.472  0.6565E+01  0.9930E+02
     16.482  0.1054E+02  0.9941E+02
     16.492  0.1153E+02  0.9952E+02
     16.502  0.7666E+01  0.9960E+02
     16.512  0.7297E+01  0.9968E+02
     16.523  0.7620E+01  0.9975E+02
     16.533  0.6844E+01  0.9982E+02
     16.543  0.7946E+01  0.9990E+02
     16.553  0.8992E+01  0.9999E+02
     16.563  0.7807E+01  0.1001E+03
     16.574  0.7958E+01  0.1002E+03
     16.584  0.8703E+01  0.1002E+03
     16.594  0.6552E+01  0.1003E+03
     16.604  0.5055E+01  0.1004E+03
     16.614  0.5617E+01  0.1004E+03
     16.624  0.5437E+01  0.1005E+03
     16.635  0.5749E+01  0.1005E+03
     16.645  0.7550E+01  0.1006E+03
     16.655  0.7503E+01  0.1007E+03
     16.665  0.5614E+01  0.1007E+03
     16.675  0.6090E+01  0.1008E+03
     16.686  0.7664E+01  0.1009E+03
     16.696  0.6395E+01  0.1009E+03
     16.706  0.6232E+01  0.1010E+03
     16.716  0.7934E+01  0.1011E+03
     16.726  0.8407E+01  0.1012E+03
     16.737  0.7186E+01  0.1013E+03
     16.747  0.6694E+01  0.1013E+03
     16.757  0.6663E+01  0.1014E+03
     16.767  0.5725E+01  0.1014E+03
     16.777  0.5926E+01  0.1015E+03
     16.787  0.6233E+01  0.1016E+03
     16.798  0.7997E+01  0.1017E+03
     16.808  0.1005E+02  0.1018E+03
     16.818  0.8984E+01  0.1018E+03
     16.828  0.8709E+01  0.1019E+03
     16.838  0.7461E+01  0.1020E+03
     16.849  0.7254E+01  0.1021E+03
     16.859  0.6577E+01  0.1022E+03
     16.869  0.5440E+01  0.1022E+03
     16.879  0.5796E+01  0.1023E+03
     16.889  0.6926E+01  0.1023E+03
     16.899  0.5285E+01  0.1024E+03
     16.910  0.6621E+01  0.1025E+03
     16.920  0.9772E+01  0.1026E+03
     16.930  0.1155E+02  0.1027E+03
     16.940  0.1027E+02  0.1028E+03
     16.950  0.6403E+01  0.1028E+03
     16.961  0.5330E+01  0.1029E+03
     16.971  0.5820E+01  0.1030E+03
     16.981  0.5230E+01  0.1030E+03
     16.991  0.5393E+01  0.1031E+03
     17.001  0.5729E+01  0.1031E+03
     17.012  0.5451E+01  0.1032E+03
     17.022  0.5198E+01  0.1032E+03
     17.032  0.6936E+01  0.1033E+03
     17.042  0.1090E+02  0.1034E+03
     17.052  0.1097E+02  0.1035E+03
     17.062  0.8598E+01  0.1036E+03
     17.073  0.7117E+01  0.1037E+03
     17.083  0.7058E+01  0.1038E+03
     17.093  0.5687E+01  0.1038E+03
     17.103  0.4963E+01  0.1039E+03
     17.113  0.7091E+01  0.1039E+03
     17.124  0.8970E+01  0.1040E+03
     17.134  0.8221E+01  0.1041E+03
     17.144  0.6407E+01  0.1042E+03
     17.154  0.3924E+01  0.1042E+03
     17.164  0.3634E+01  0.1043E+03
     17.175  0.5573E+01  0.1043E+03
     17.185  0.7150E+01  0.1044E+03
     17.195  0.7452E+01  0.1045E+03
     17.205  0.6762E+01  0.1045E+03
     17.215  0.7511E+01  0.1046E+03
     17.225  0.8811E+01  0.1047E+03
     17.236  0.8187E+01  0.1048E+03
     17.246  0.7851E+01  0.1049E+03
     17.256  0.7497E+01  0.1049E+03
     17.266  0.9075E+01  0.1050E+03
     17.276  0.9734E+01  0.1051E+03
     17.287  0.7373E+01  0.1052E+03
     17.297  0.6766E+01  0.1053E+03
     17.307  0.7460E+01  0.1053E+03
     17.317  0.9953E+01  0.1054E+03
     17.327  0.1261E+02  0.1056E+03
     17.337  0.1190E+02  0.1057E+03
     17.348  0.9409E+01  0.1058E+03
     17.358  0.7764E+01  0.1059E+03
     17.368  0.6939E+01  0.1059E+03
     17.378  0.7274E+01  0.1060E+03
     17.388  0.9489E+01  0.1061E+03
     17.399  0.9180E+01  0.1062E+03
     17.409  0.1050E+02  0.1063E+03
     17.419  0.9214E+01  0.1064E+03
     17.429  0.7853E+01  0.1065E+03
     17.439  0.8220E+01  0.1066E+03
     17.450  0.7393E+01  0.1066E+03
     17.460  0.5886E+01  0.1067E+03
     17.470  0.6082E+01  0.1068E+03
     17.480  0.7191E+01  0.1068E+03
     17.490  0.8000E+01  0.1069E+03
     17.500  0.6969E+01  0.1070E+03
     17.511  0.6159E+01  0.1071E+03
     17.521  0.6535E+01  0.1071E+03
     17.531  0.7813E+01  0.1072E+03
     17.541  0.9858E+01  0.1073E+03
     17.551  0.8608E+01  0.1074E+03
     17.562  0.5422E+01  0.1074E+03
     17.572  0.4051E+01  0.1075E+03
     17.582  0.6868E+01  0.1076E+03
     17.592  0.1112E+02  0.1077E+03
     17.602  0.9964E+01  0.1078E+03
     17.612  0.7920E+01  0.1079E+03
     17.623  0.7428E+01  0.1079E+03
     17.633  0.6511E+01  0.1080E+03
     17.643  0.7368E+01  0.1081E+03
     17.653  0.7421E+01  0.1081E+03
     17.663  0.7605E+01  0.1082E+03
     17.674  0.7254E+01  0.1083E+03
     17.684  0.7329E+01  0.1084E+03
     17.694  0.7686E+01  0.1085E+03
     17.704  0.6470E+01  0.1085E+03
     17.714  0.7453E+01  0.1086E+03
     17.725  0.7758E+01  0.1087E+03
     17.735  0.7739E+01  0.1088E+03
     17.745  0.7323E+01  0.1088E+03
     17.755  0.6780E+01  0.1089E+03
     17.765  0.5881E+01  0.1090E+03
     17.775  0.6174E+01  0.1090E+03
     17.786  0.7338E+01  0.1091E+03
     17.796  0.6864E+01  0.1092E+03
     17.806  0.5090E+01  0.1092E+03
     17.816  0.3307E+01  0.1092E+03
     17.826  0.3514E+01  0.1093E+03
     17.837  0.5357E+01  0.1093E+03
     17.847  0.5615E+01  0.1094E+03
     17.857  0.6948E+01  0.1095E+03
     17.867  0.8965E+01  0.1096E+03
     17.877  0.7152E+01  0.1096E+03
     17.888  0.5367E+01  0.1097E+03
     17.898  0.5326E+01  0.1097E+03
     17.908  0.6039E+01  0.1098E+03
     17.918  0.7389E+01  0.1099E+03
     17.928  0.5762E+01  0.1099E+03
     17.938  0.3917E+01  0.1100E+03
     17.949  0.3909E+01  0.1100E+03
     17.959  0.4731E+01  0.1101E+03
     17.969  0.6780E+01  0.1101E+03
     17.979  0.7746E+01  0.1102E+03
     17.989  0.7562E+01  0.1103E+03
     18.000  0.7392E+01  0.1104E+03
     18.010  0.6145E+01  0.1104E+03
     18.020  0.8193E+01  0.1105E+03
     18.030  0.9681E+01  0.1106E+03
     18.040  0.9693E+01  0.1107E+03
     18.050  0.9143E+01  0.1108E+03
     18.061  0.7686E+01  0.1109E+03
     18.071  0.6546E+01  0.1109E+03
     18.081  0.6820E+01  0.1110E+03
     18.091  0.7361E+01  0.1111E+03
     18.101  0.6883E+01  0.1112E+03
     18.112  0.8845E+01  0.1112E+03
     18.122  0.1167E+02  0.1114E+03
     18.132  0.9421E+01  0.1115E+03
     18.142  0.5651E+01  0.1115E+03
     18.152  0.4621E+01  0.1116E+03
     18.163  0.4560E+01  0.1116E+03
     18.173  0.3882E+01  0.1117E+03
     18.183  0.3800E+01  0.1117E+03
     18.193  0.4049E+01  0.1117E+03
     18.203  0.5076E+01  0.1118E+03
     18.213  0.5519E+01  0.1118E+03
     18.224  0.3543E+01  0.1119E+03
     18.234  0.3756E+01  0.1119E+03
     18.244  0.5706E+01  0.1120E+03
     18.254  0.6556E+01  0.1120E+03
     18.264  0.6517E+01  0.1121E+03
     18.275  0.8044E+01  0.1122E+03
     18.285  0.7607E+01  0.1123E+03
     18.295  0.5751E+01  0.1123E+03
     18.305  0.4295E+01  0.1124E+03
     18.315  0.4685E+01  0.1124E+03
     18.325  0.5358E+01  0.1125E+03
     18.336  0.4772E+01  0.1125E+03
     18.346  0.4756E+01  0.1126E+03
     18.356  0.4196E+01  0.1126E+03
     18.366  0.4890E+01  0.1127E+03
     18.376  0.7088E+01  0.1127E+03
     18.387  0.6597E+01  0.1128E+03
     18.397  0.3231E+01  0.1128E+03
     18.407  0.3048E+01  0.1129E+03
     18.417  0.5073E+01  0.1129E+03
     18.427  0.5313E+01  0.1130E+03
     18.438  0.4683E+01  0.1130E+03
     18.448  0.5562E+01  0.1131E+03
     18.458  0.4967E+01  0.1131E+03
     18.468  0.3752E+01  0.1132E+03
     18.478  0.3816E+01  0.1132E+03
     18.488  0.4940E+01  0.1133E+03
     18.499  0.5344E+01  0.1133E+03
     18.509  0.6823E+01  0.1134E+03
     18.519  0.6112E+01  0.1134E+03
     18.529  0.5489E+01  0.1135E+03
     18.539  0.4838E+01  0.1135E+03
     18.550  0.5136E+01  0.1136E+03
     18.560  0.6108E+01  0.1137E+03
     18.570  0.6009E+01  0.1137E+03
     18.580  0.5968E+01  0.1138E+03
     18.590  0.4887E+01  0.1138E+03
     18.600  0.2804E+01  0.1139E+03
     18.611  0.2602E+01  0.1139E+03
     18.621  0.2972E+01  0.1139E+03
     18.631  0.4176E+01  0.1140E+03
     18.641  0.4466E+01  0.1140E+03
     18.651  0.4090E+01  0.1140E+03
     18.662  0.4493E+01  0.1141E+03
     18.672  0.6057E+01  0.1142E+03
     18.682  0.7532E+01  0.1142E+03
     18.692  0.6449E+01  0.1143E+03
     18.702  0.4556E+01  0.1143E+03
     18.713  0.3198E+01  0.1144E+03
     18.723  0.3458E+01  0.1144E+03
     18.733  0.5959E+01  0.1145E+03
     18.743  0.6232E+01  0.1145E+03
     18.753  0.5591E+01  0.1146E+03
     18.763  0.4637E+01  0.1146E+03
     18.774  0.4273E+01  0.1147E+03
     18.784  0.3688E+01  0.1147E+03
     18.794  0.2762E+01  0.1147E+03
     18.804  0.3517E+01  0.1148E+03
     18.814  0.5938E+01  0.1148E+03
     18.825  0.7931E+01  0.1149E+03
     18.835  0.5813E+01  0.1150E+03
     18.845  0.3710E+01  0.1150E+03
     18.855  0.3394E+01  0.1151E+03
     18.865  0.4369E+01  0.1151E+03
     18.876  0.5947E+01  0.1152E+03
     18.886  0.6383E+01  0.1152E+03
     18.896  0.6335E+01  0.1153E+03
     18.906  0.6220E+01  0.1154E+03
     18.916  0.7847E+01  0.1154E+03
     18.926  0.8779E+01  0.1155E+03
     18.937  0.5782E+01  0.1156E+03
     18.947  0.6618E+01  0.1157E+03
     18.957  0.7238E+01  0.1157E+03
     18.967  0.4836E+01  0.1158E+03
     18.977  0.5603E+01  0.1158E+03
     18.988  0.7962E+01  0.1159E+03
     18.998  0.6847E+01  0.1160E+03
     19.008  0.4480E+01  0.1160E+03
     19.018  0.4166E+01  0.1161E+03
     19.028  0.3126E+01  0.1161E+03
     19.038  0.2011E+01  0.1161E+03
     19.049  0.2500E+01  0.1161E+03
     19.059  0.3235E+01  0.1162E+03
     19.069  0.4856E+01  0.1162E+03
     19.079  0.6485E+01  0.1163E+03
     19.089  0.6261E+01  0.1164E+03
     19.100  0.4076E+01  0.1164E+03
     19.110  0.5088E+01  0.1165E+03
     19.120  0.8034E+01  0.1165E+03
     19.130  0.6435E+01  0.1166E+03
     19.140  0.4772E+01  0.1166E+03
     19.151  0.4748E+01  0.1167E+03
     19.161  0.3906E+01  0.1167E+03
     19.171  0.3264E+01  0.1168E+03
     19.181  0.3675E+01  0.1168E+03
     19.191  0.4313E+01  0.1169E+03
     19.201  0.5437E+01  0.1169E+03
     19.212  0.7210E+01  0.1170E+03
     19.222  0.6778E+01  0.1170E+03
     19.232  0.5572E+01  0.1171E+03
     19.242  0.4606E+01  0.1172E+03
     19.252  0.5091E+01  0.1172E+03
     19.263  0.5473E+01  0.1173E+03
     19.273  0.6954E+01  0.1173E+03
     19.283  0.7134E+01  0.1174E+03
     19.293  0.5663E+01  0.1175E+03
     19.303  0.5251E+01  0.1175E+03
     19.313  0.8074E+01  0.1176E+03
     19.324  0.8254E+01  0.1177E+03
     19.334  0.5087E+01  0.1177E+03
     19.344  0.4549E+01  0.1178E+03
     19.354  0.4759E+01  0.1178E+03
     19.364  0.5055E+01  0.1179E+03
     19.375  0.5716E+01  0.1179E+03
     19.385  0.4928E+01  0.1180E+03
     19.395  0.5155E+01  0.1180E+03
     19.405  0.5000E+01  0.1181E+03
     19.415  0.3850E+01  0.1181E+03
     19.426  0.5192E+01  0.1182E+03
     19.436  0.5132E+01  0.1182E+03
     19.446  0.4829E+01  0.1183E+03
     19.456  0.6023E+01  0.1183E+03
     19.466  0.6372E+01  0.1184E+03
     19.476  0.4457E+01  0.1185E+03
     19.487  0.4464E+01  0.1185E+03
     19.497  0.4652E+01  0.1185E+03
     19.507  0.4939E+01  0.1186E+03
     19.517  0.4464E+01  0.1186E+03
     19.527  0.5447E+01  0.1187E+03
     19.538  0.4978E+01  0.1188E+03
     19.548  0.3719E+01  0.1188E+03
     19.558  0.2418E+01  0.1188E+03
     19.568  0.3014E+01  0.1188E+03
     19.578  0.3237E+01  0.1189E+03
     19.588  0.2269E+01  0.1189E+03
     19.599  0.3382E+01  0.1189E+03
     19.609  0.3967E+01  0.1190E+03
     19.619  0.3169E+01  0.1190E+03
     19.629  0.2495E+01  0.1190E+03
     19.639  0.3543E+01  0.1191E+03
     19.650  0.4006E+01  0.1191E+03
     19.660  0.3535E+01  0.1191E+03
     19.670  0.2918E+01  0.1192E+03
     19.680  0.3798E+01  0.1192E+03
     19.690  0.4957E+01  0.1193E+03
     19.701  0.5390E+01  0.1193E+03
     19.711  0.4264E+01  0.1194E+03
     19.721  0.3755E+01  0.1194E+03
     19.731  0.4286E+01  0.1194E+03
     19.741  0.6058E+01  0.1195E+03
     19.751  0.6066E+01  0.1196E+03
     19.762  0.5284E+01  0.1196E+03
     19.772  0.5727E+01  0.1197E+03
     19.782  0.4700E+01  0.1197E+03
     19.792  0.3896E+01  0.1198E+03
     19.802  0.6250E+01  0.1198E+03
     19.813  0.8582E+01  0.1199E+03
     19.823  0.6018E+01  0.1200E+03
     19.833  0.5079E+01  0.1200E+03
     19.843  0.4290E+01  0.1201E+03
     19.853  0.4046E+01  0.1201E+03
     19.864  0.4846E+01  0.1202E+03
     19.874  0.4797E+01  0.1202E+03
     19.884  0.3574E+01  0.1203E+03
     19.894  0.4376E+01  0.1203E+03
     19.904  0.6366E+01  0.1204E+03
     19.914  0.7399E+01  0.1204E+03
     19.925  0.8711E+01  0.1205E+03
     19.935  0.5019E+01  0.1206E+03
     19.945  0.4250E+01  0.1206E+03
     19.955  0.5294E+01  0.1207E+03
     19.965  0.4720E+01  0.1207E+03
     19.976  0.4422E+01  0.1208E+03
     19.986  0.2914E+01  0.1208E+03
     19.996  0.3905E+01  0.1208E+03
     20.006  0.4209E+01  0.1209E+03
     20.016  0.5599E+01  0.1209E+03
     20.026  0.5509E+01  0.1210E+03
     20.037  0.3073E+01  0.1210E+03
     20.047  0.2519E+01  0.1210E+03
     20.057  0.3186E+01  0.1211E+03
     20.067  0.4200E+01  0.1211E+03
     20.077  0.4408E+01  0.1212E+03
     20.088  0.3382E+01  0.1212E+03
     20.098  0.4197E+01  0.1212E+03
     20.108  0.3950E+01  0.1213E+03
     20.118  0.3272E+01  0.1213E+03
     20.128  0.3254E+01  0.1214E+03
     20.139  0.3361E+01  0.1214E+03
     20.149  0.5268E+01  0.1214E+03
     20.159  0.7390E+01  0.1215E+03
     20.169  0.5632E+01  0.1216E+03
     20.179  0.5039E+01  0.1216E+03
     20.189  0.5951E+01  0.1217E+03
     20.200  0.5538E+01  0.1217E+03
     20.210  0.6729E+01  0.1218E+03
     20.220  0.5581E+01  0.1219E+03
     20.230  0.4642E+01  0.1219E+03
     20.240  0.5177E+01  0.1220E+03
     20.251  0.6562E+01  0.1220E+03
     20.261  0.5240E+01  0.1221E+03
     20.271  0.3298E+01  0.1221E+03
     20.281  0.3210E+01  0.1222E+03
     20.291  0.4228E+01  0.1222E+03
     20.301  0.4730E+01  0.1222E+03
     20.312  0.4554E+01  0.1223E+03
     20.322  0.4333E+01  0.1223E+03
     20.332  0.4119E+01  0.1224E+03
     20.342  0.5032E+01  0.1224E+03
     20.352  0.7348E+01  0.1225E+03
     20.363  0.7968E+01  0.1226E+03
     20.373  0.4495E+01  0.1226E+03
     20.383  0.3239E+01  0.1227E+03
     20.393  0.4007E+01  0.1227E+03
     20.403  0.4904E+01  0.1228E+03
     20.414  0.4047E+01  0.1228E+03
     20.424  0.3694E+01  0.1228E+03
     20.434  0.3722E+01  0.1229E+03
     20.444  0.2791E+01  0.1229E+03
     20.454  0.4136E+01  0.1229E+03
     20.464  0.6934E+01  0.1230E+03
     20.475  0.9708E+01  0.1231E+03
     20.485  0.9172E+01  0.1232E+03
     20.495  0.5471E+01  0.1233E+03
     20.505  0.3314E+01  0.1233E+03
     20.515  0.3703E+01  0.1233E+03
     20.526  0.4920E+01  0.1234E+03
     20.536  0.3098E+01  0.1234E+03
     20.546  0.2593E+01  0.1234E+03
     20.556  0.4320E+01  0.1235E+03
     20.566  0.6072E+01  0.1235E+03
     20.576  0.5324E+01  0.1236E+03
     20.587  0.4588E+01  0.1236E+03
     20.597  0.5315E+01  0.1237E+03
     20.607  0.5846E+01  0.1238E+03
     20.617  0.5473E+01  0.1238E+03
     20.627  0.4256E+01  0.1239E+03
     20.638  0.4084E+01  0.1239E+03
     20.648  0.4924E+01  0.1240E+03
     20.658  0.4644E+01  0.1240E+03
     20.668  0.5390E+01  0.1241E+03
     20.678  0.4450E+01  0.1241E+03
     20.689  0.3504E+01  0.1241E+03
     20.699  0.3554E+01  0.1242E+03
     20.709  0.4164E+01  0.1242E+03
     20.719  0.5392E+01  0.1243E+03
     20.729  0.6206E+01  0.1243E+03
     20.739  0.5270E+01  0.1244E+03
     20.750  0.5784E+01  0.1244E+03
     20.760  0.7141E+01  0.1245E+03
     20.770  0.5544E+01  0.1246E+03
     20.780  0.5029E+01  0.1246E+03
     20.790  0.6034E+01  0.1247E+03
     20.801  0.6487E+01  0.1248E+03
     20.811  0.5188E+01  0.1248E+03
     20.821  0.3961E+01  0.1248E+03
     20.831  0.3247E+01  0.1249E+03
     20.841  0.5264E+01  0.1249E+03
     20.852  0.5493E+01  0.1250E+03
     20.862  0.4756E+01  0.1250E+03
     20.872  0.3973E+01  0.1251E+03
     20.882  0.4181E+01  0.1251E+03
     20.892  0.5698E+01  0.1252E+03
     20.902  0.6699E+01  0.1252E+03
     20.913  0.7094E+01  0.1253E+03
     20.923  0.6485E+01  0.1254E+03
     20.933  0.5556E+01  0.1254E+03
     20.943  0.5078E+01  0.1255E+03
     20.953  0.4511E+01  0.1255E+03
     20.964  0.4329E+01  0.1256E+03
     20.974  0.5932E+01  0.1256E+03
     20.984  0.6263E+01  0.1257E+03
     20.994  0.3897E+01  0.1257E+03
     21.004  0.4020E+01  0.1258E+03
     21.014  0.5465E+01  0.1258E+03
     21.025  0.5691E+01  0.1259E+03
     21.035  0.4449E+01  0.1259E+03
     21.045  0.3568E+01  0.1260E+03
     21.055  0.5176E+01  0.1260E+03
     21.065  0.5993E+01  0.1261E+03
     21.076  0.5342E+01  0.1262E+03
     21.086  0.4408E+01  0.1262E+03
     21.096  0.3540E+01  0.1262E+03
     21.106  0.4426E+01  0.1263E+03
     21.116  0.6701E+01  0.1263E+03
     21.127  0.6979E+01  0.1264E+03
     21.137  0.6423E+01  0.1265E+03
     21.147  0.4971E+01  0.1265E+03
     21.157  0.4771E+01  0.1266E+03
     21.167  0.5733E+01  0.1266E+03
     21.177  0.5927E+01  0.1267E+03
     21.188  0.6398E+01  0.1268E+03
     21.198  0.4954E+01  0.1268E+03
     21.208  0.5206E+01  0.1269E+03
     21.218  0.6434E+01  0.1269E+03
     21.228  0.6584E+01  0.1270E+03
     21.239  0.5708E+01  0.1271E+03
     21.249  0.5662E+01  0.1271E+03
     21.259  0.6928E+01  0.1272E+03
     21.269  0.5351E+01  0.1272E+03
     21.279  0.5961E+01  0.1273E+03
     21.289  0.7173E+01  0.1274E+03
     21.300  0.7064E+01  0.1274E+03
     21.310  0.6575E+01  0.1275E+03
     21.320  0.5492E+01  0.1276E+03
     21.330  0.6007E+01  0.1276E+03
     21.340  0.6074E+01  0.1277E+03
     21.351  0.4278E+01  0.1277E+03
     21.361  0.4117E+01  0.1278E+03
     21.371  0.5805E+01  0.1278E+03
     21.381  0.5192E+01  0.1279E+03
     21.391  0.4086E+01  0.1279E+03
     21.402  0.4075E+01  0.1280E+03
     21.412  0.4098E+01  0.1280E+03
     21.422  0.4065E+01  0.1281E+03
     21.432  0.4527E+01  0.1281E+03
     21.442  0.4317E+01  0.1281E+03
     21.452  0.3065E+01  0.1282E+03
     21.463  0.4942E+01  0.1282E+03
     21.473  0.7475E+01  0.1283E+03
     21.483  0.6434E+01  0.1284E+03
     21.493  0.7249E+01  0.1284E+03
     21.503  0.6571E+01  0.1285E+03
     21.514  0.6430E+01  0.1286E+03
     21.524  0.6199E+01  0.1286E+03
     21.534  0.3755E+01  0.1287E+03
     21.544  0.3730E+01  0.1287E+03
     21.554  0.4796E+01  0.1288E+03
     21.565  0.3756E+01  0.1288E+03
     21.575  0.3530E+01  0.1288E+03
     21.585  0.3065E+01  0.1289E+03
     21.595  0.4569E+01  0.1289E+03
     21.605  0.6797E+01  0.1290E+03
     21.615  0.5605E+01  0.1290E+03
     21.626  0.5486E+01  0.1291E+03
     21.636  0.6871E+01  0.1292E+03
     21.646  0.7245E+01  0.1292E+03
     21.656  0.5738E+01  0.1293E+03
     21.666  0.5285E+01  0.1294E+03
     21.677  0.4645E+01  0.1294E+03
     21.687  0.3181E+01  0.1294E+03
     21.697  0.4162E+01  0.1295E+03
     21.707  0.5428E+01  0.1295E+03
     21.717  0.4915E+01  0.1296E+03
     21.727  0.5842E+01  0.1296E+03
     21.738  0.5784E+01  0.1297E+03
     21.748  0.6700E+01  0.1298E+03
     21.758  0.6502E+01  0.1298E+03
     21.768  0.8062E+01  0.1299E+03
     21.778  0.7154E+01  0.1300E+03
     21.789  0.4946E+01  0.1300E+03
     21.799  0.4657E+01  0.1301E+03
     21.809  0.4745E+01  0.1301E+03
     21.819  0.4861E+01  0.1302E+03
     21.829  0.6377E+01  0.1303E+03
     21.840  0.6225E+01  0.1303E+03
     21.850  0.4840E+01  0.1304E+03
     21.860  0.4839E+01  0.1304E+03
     21.870  0.6033E+01  0.1305E+03
     21.880  0.5965E+01  0.1305E+03
     21.890  0.5127E+01  0.1306E+03
     21.901  0.6096E+01  0.1306E+03
     21.911  0.9400E+01  0.1307E+03
     21.921  0.8447E+01  0.1308E+03
     21.931  0.6469E+01  0.1309E+03
     21.941  0.6294E+01  0.1310E+03
     21.952  0.7185E+01  0.1310E+03
     21.962  0.6182E+01  0.1311E+03
     21.972  0.5849E+01  0.1312E+03
     21.982  0.4972E+01  0.1312E+03
     21.992  0.4469E+01  0.1313E+03
     22.002  0.4780E+01  0.1313E+03
     22.013  0.4928E+01  0.1314E+03
     22.023  0.5446E+01  0.1314E+03
     22.033  0.7506E+01  0.1315E+03
     22.043  0.9289E+01  0.1316E+03
     22.053  0.8050E+01  0.1317E+03
     22.064  0.7730E+01  0.1317E+03
     22.074  0.7858E+01  0.1318E+03
     22.084  0.7824E+01  0.1319E+03
     22.094  0.6987E+01  0.1320E+03
     22.104  0.5744E+01  0.1320E+03
     22.115  0.5936E+01  0.1321E+03
     22.125  0.6066E+01  0.1322E+03
     22.135  0.7538E+01  0.1322E+03
     22.145  0.6718E+01  0.1323E+03
     22.155  0.4386E+01  0.1323E+03
     22.165  0.3476E+01  0.1324E+03
     22.176  0.6306E+01  0.1324E+03
     22.186  0.7642E+01  0.1325E+03
     22.196  0.6187E+01  0.1326E+03
     22.206  0.5575E+01  0.1326E+03
     22.216  0.5000E+01  0.1327E+03
     22.227  0.4627E+01  0.1327E+03
     22.237  0.3857E+01  0.1328E+03
     22.247  0.4301E+01  0.1328E+03
     22.257  0.5115E+01  0.1329E+03
     22.267  0.6145E+01  0.1329E+03
     22.277  0.5011E+01  0.1330E+03
     22.288  0.5076E+01  0.1330E+03
     22.298  0.3959E+01  0.1331E+03
     22.308  0.4459E+01  0.1331E+03
     22.318  0.7365E+01  0.1332E+03
     22.328  0.7922E+01  0.1333E+03
     22.339  0.4623E+01  0.1333E+03
     22.349  0.3665E+01  0.1334E+03
     22.359  0.6660E+01  0.1334E+03
     22.369  0.7874E+01  0.1335E+03
     22.379  0.5499E+01  0.1336E+03
     22.390  0.3774E+01  0.1336E+03
     22.400  0.4479E+01  0.1337E+03
     22.410  0.5515E+01  0.1337E+03
     22.420  0.5681E+01  0.1338E+03
     22.430  0.6327E+01  0.1338E+03
     22.440  0.7454E+01  0.1339E+03
     22.451  0.6837E+01  0.1340E+03
     22.461  0.3747E+01  0.1340E+03
     22.471  0.3779E+01  0.1341E+03
     22.481  0.5805E+01  0.1341E+03
     22.491  0.6684E+01  0.1342E+03
     22.502  0.6143E+01  0.1342E+03
     22.512  0.7251E+01  0.1343E+03
     22.522  0.7702E+01  0.1344E+03
     22.532  0.5358E+01  0.1344E+03
     22.542  0.5778E+01  0.1345E+03
     22.553  0.6250E+01  0.1346E+03
     22.563  0.4681E+01  0.1346E+03
     22.573  0.5563E+01  0.1347E+03
     22.583  0.5715E+01  0.1347E+03
     22.593  0.3425E+01  0.1348E+03
     22.603  0.3810E+01  0.1348E+03
     22.614  0.5064E+01  0.1349E+03
     22.624  0.5889E+01  0.1349E+03
     22.634  0.5843E+01  0.1350E+03
     22.644  0.5906E+01  0.1350E+03
     22.654  0.6041E+01  0.1351E+03
     22.665  0.5134E+01  0.1352E+03
     22.675  0.6984E+01  0.1352E+03
     22.685  0.6481E+01  0.1353E+03
     22.695  0.4019E+01  0.1353E+03
     22.705  0.3883E+01  0.1354E+03
     22.715  0.4611E+01  0.1354E+03
     22.726  0.4282E+01  0.1355E+03
     22.736  0.5004E+01  0.1355E+03
     22.746  0.6352E+01  0.1356E+03
     22.756  0.5082E+01  0.1356E+03
     22.766  0.5338E+01  0.1357E+03
     22.777  0.5779E+01  0.1357E+03
     22.787  0.6629E+01  0.1358E+03
     22.797  0.6511E+01  0.1359E+03
     22.807  0.6932E+01  0.1359E+03
     22.817  0.9065E+01  0.1360E+03
     22.828  0.8775E+01  0.1361E+03
     22.838  0.6351E+01  0.1362E+03
     22.848  0.5758E+01  0.1363E+03
     22.858  0.6801E+01  0.1363E+03
     22.868  0.6830E+01  0.1364E+03
     22.878  0.8176E+01  0.1365E+03
     22.889  0.9344E+01  0.1366E+03
     22.899  0.7777E+01  0.1366E+03
     22.909  0.7638E+01  0.1367E+03
     22.919  0.5617E+01  0.1368E+03
     22.929  0.4016E+01  0.1368E+03
     22.940  0.4853E+01  0.1369E+03
     22.950  0.7622E+01  0.1369E+03
     22.960  0.7720E+01  0.1370E+03
     22.970  0.7532E+01  0.1371E+03
     22.980  0.7311E+01  0.1372E+03
     22.990  0.6747E+01  0.1372E+03
     23.001  0.9629E+01  0.1373E+03
     23.011  0.9130E+01  0.1374E+03
     23.021  0.6317E+01  0.1375E+03
     23.031  0.5742E+01  0.1376E+03
     23.041  0.5515E+01  0.1376E+03
     23.052  0.6644E+01  0.1377E+03
     23.062  0.8237E+01  0.1378E+03
     23.072  0.7782E+01  0.1378E+03
     23.082  0.6446E+01  0.1379E+03
     23.092  0.5944E+01  0.1380E+03
     23.103  0.4602E+01  0.1380E+03
     23.113  0.3600E+01  0.1381E+03
     23.123  0.3589E+01  0.1381E+03
     23.133  0.4011E+01  0.1381E+03
     23.143  0.4120E+01  0.1382E+03
     23.153  0.5145E+01  0.1382E+03
     23.164  0.6365E+01  0.1383E+03
     23.174  0.6603E+01  0.1384E+03
     23.184  0.4505E+01  0.1384E+03
     23.194  0.2707E+01  0.1384E+03
     23.204  0.3371E+01  0.1385E+03
     23.215  0.5192E+01  0.1385E+03
     23.225  0.5576E+01  0.1386E+03
     23.235  0.7370E+01  0.1387E+03
     23.245  0.7569E+01  0.1387E+03
     23.255  0.7276E+01  0.1388E+03
     23.265  0.7668E+01  0.1389E+03
     23.276  0.7057E+01  0.1390E+03
     23.286  0.5692E+01  0.1390E+03
     23.296  0.4478E+01  0.1391E+03
     23.306  0.5444E+01  0.1391E+03
     23.316  0.1010E+02  0.1392E+03
     23.327  0.1005E+02  0.1393E+03
     23.337  0.6624E+01  0.1394E+03
     23.347  0.6207E+01  0.1395E+03
     23.357  0.7518E+01  0.1395E+03
     23.367  0.7715E+01  0.1396E+03
     23.378  0.6227E+01  0.1397E+03
     23.388  0.4540E+01  0.1397E+03
     23.398  0.5102E+01  0.1398E+03
     23.408  0.5323E+01  0.1398E+03
     23.418  0.5700E+01  0.1399E+03
     23.428  0.6898E+01  0.1400E+03
     23.439  0.5547E+01  0.1400E+03
     23.449  0.6611E+01  0.1401E+03
     23.459  0.9244E+01  0.1402E+03
     23.469  0.9183E+01  0.1403E+03
     23.479  0.6816E+01  0.1403E+03
     23.490  0.6375E+01  0.1404E+03
     23.500  0.5676E+01  0.1405E+03
     23.510  0.5898E+01  0.1405E+03
     23.520  0.5426E+01  0.1406E+03
     23.530  0.5012E+01  0.1406E+03
     23.541  0.5068E+01  0.1407E+03
     23.551  0.5826E+01  0.1407E+03
     23.561  0.7705E+01  0.1408E+03
     23.571  0.5766E+01  0.1409E+03
     23.581  0.3702E+01  0.1409E+03
     23.591  0.2744E+01  0.1409E+03
     23.602  0.4878E+01  0.1410E+03
     23.612  0.6853E+01  0.1411E+03
     23.622  0.6449E+01  0.1411E+03
     23.632  0.6339E+01  0.1412E+03
     23.642  0.5883E+01  0.1412E+03
     23.653  0.7666E+01  0.1413E+03
     23.663  0.1076E+02  0.1414E+03
     23.673  0.9442E+01  0.1415E+03
     23.683  0.9648E+01  0.1416E+03
     23.693  0.7779E+01  0.1417E+03
     23.703  0.6843E+01  0.1418E+03
     23.714  0.9065E+01  0.1419E+03
     23.724  0.9001E+01  0.1420E+03
     23.734  0.7515E+01  0.1420E+03
     23.744  0.8071E+01  0.1421E+03
     23.754  0.8233E+01  0.1422E+03
     23.765  0.6537E+01  0.1423E+03
     23.775  0.6472E+01  0.1423E+03
     23.785  0.5359E+01  0.1424E+03
     23.795  0.5158E+01  0.1424E+03
     23.805  0.5744E+01  0.1425E+03
     23.816  0.6066E+01  0.1426E+03
     23.826  0.5802E+01  0.1426E+03
     23.836  0.6663E+01  0.1427E+03
     23.846  0.6191E+01  0.1428E+03
     23.856  0.6447E+01  0.1428E+03
     23.866  0.5820E+01  0.1429E+03
     23.877  0.3790E+01  0.1429E+03
     23.887  0.3087E+01  0.1429E+03
     23.897  0.3038E+01  0.1430E+03
     23.907  0.5674E+01  0.1430E+03
     23.917  0.8572E+01  0.1431E+03
     23.928  0.8970E+01  0.1432E+03
     23.938  0.7147E+01  0.1433E+03
     23.948  0.4440E+01  0.1433E+03
     23.958  0.4372E+01  0.1434E+03
     23.968  0.6990E+01  0.1434E+03
     23.978  0.7239E+01  0.1435E+03
     23.989  0.4088E+01  0.1436E+03
     23.999  0.1102E+01  0.1436E+03
     24.009  0.1558E+01  0.1436E+03
     24.019  0.4197E+01  0.1436E+03
     24.029  0.5332E+01  0.1437E+03
     24.040  0.3904E+01  0.1437E+03
     24.050  0.3192E+01  0.1438E+03
     24.060  0.3542E+01  0.1438E+03
     24.070  0.2592E+01  0.1438E+03
     24.080  0.1762E+01  0.1438E+03
     24.091  0.1218E+01  0.1439E+03
     24.101  0.6675E+00  0.1439E+03
     24.111  0.4718E+00  0.1439E+03
     24.121  0.6599E+00  0.1439E+03
     24.131  0.5534E+00  0.1439E+03
     24.141  0.1030E+01  0.1439E+03
     24.152  0.1351E+01  0.1439E+03
     24.162  0.1545E+01  0.1439E+03
     24.172  0.1400E+01  0.1439E+03
     24.182  0.1129E+01  0.1439E+03
     24.192  0.9212E+00  0.1440E+03
     24.203  0.7346E+00  0.1440E+03
     24.213  0.2126E+00  0.1440E+03
     24.223  0.9096E-01  0.1440E+03
     24.233  0.7558E+00  0.1440E+03
     24.243  0.1258E+01  0.1440E+03
     24.253  0.3792E+00  0.1440E+03
     24.264  0.1949E-01  0.1440E+03
     24.274  0.1556E-03  0.1440E+03
     24.284  0.1792E-06  0.1440E+03
     24.294  0.7356E-09  0.1440E+03
     24.304  0.2081E-05  0.1440E+03
     24.315  0.8302E-03  0.1440E+03
     24.325  0.4722E-01  0.1440E+03
     24.335  0.4153E+00  0.1440E+03
     24.345  0.6177E+00  0.1440E+03
     24.355  0.1590E+00  0.1440E+03
     24.366  0.6606E-02  0.1440E+03
     24.376  0.4046E-04  0.1440E+03
     24.386  0.3426E-07  0.1440E+03
     24.396  0.3866E-11  0.1440E+03
     24.406  0.0000E+00  0.1440E+03
     24.416  0.0000E+00  0.1440E+03
     24.427  0.0000E+00  0.1440E+03
     24.437  0.0000E+00  0.1440E+03
     24.447  0.0000E+00  0.1440E+03
     24.457  0.0000E+00  0.1440E+03
     24.467  0.0000E+00  0.1440E+03
     24.478  0.0000E+00  0.1440E+03
     24.488  0.0000E+00  0.1440E+03
     24.498  0.0000E+00  0.1440E+03
     24.508  0.0000E+00  0.1440E+03
     24.518  0.0000E+00  0.1440E+03
     24.529  0.0000E+00  0.1440E+03
     24.539  0.0000E+00  0.1440E+03
     24.549  0.0000E+00  0.1440E+03
     24.559  0.0000E+00  0.1440E+03
     24.569  0.0000E+00  0.1440E+03
     24.579  0.0000E+00  0.1440E+03
     24.590  0.0000E+00  0.1440E+03
     24.600  0.0000E+00  0.1440E+03
     24.610  0.0000E+00  0.1440E+03
     24.620  0.0000E+00  0.1440E+03
     24.630  0.0000E+00  0.1440E+03
     24.641  0.0000E+00  0.1440E+03
     24.651  0.0000E+00  0.1440E+03
     24.661  0.0000E+00  0.1440E+03
     24.671  0.0000E+00  0.1440E+03
     24.681  0.0000E+00  0.1440E+03
     24.691  0.0000E+00  0.1440E+03
     24.702  0.0000E+00  0.1440E+03
     24.712  0.0000E+00  0.1440E+03
     24.722  0.0000E+00  0.1440E+03
     24.732  0.0000E+00  0.1440E+03
     24.742  0.0000E+00  0.1440E+03
     24.753  0.0000E+00  0.1440E+03
     24.763  0.0000E+00  0.1440E+03
     24.773  0.0000E+00  0.1440E+03
     24.783  0.0000E+00  0.1440E+03
     24.793  0.0000E+00  0.1440E+03
     24.804  0.0000E+00  0.1440E+03
     24.814  0.0000E+00  0.1440E+03
     24.824  0.0000E+00  0.1440E+03
     24.834  0.0000E+00  0.1440E+03
     24.844  0.0000E+00  0.1440E+03
     24.854  0.0000E+00  0.1440E+03
     24.865  0.0000E+00  0.1440E+03
     24.875  0.0000E+00  0.1440E+03
     24.885  0.0000E+00  0.1440E+03
     24.895  0.0000E+00  0.1440E+03
     24.905  0.0000E+00  0.1440E+03
     24.916  0.0000E+00  0.1440E+03
     24.926  0.0000E+00  0.1440E+03
     24.936  0.0000E+00  0.1440E+03
     24.946  0.0000E+00  0.1440E+03
     24.956  0.0000E+00  0.1440E+03
     24.966  0.0000E+00  0.1440E+03
     24.977  0.0000E+00  0.1440E+03
     24.987  0.0000E+00  0.1440E+03
     24.997  0.0000E+00  0.1440E+03
     25.007  0.0000E+00  0.1440E+03
     25.017  0.0000E+00  0.1440E+03
     25.028  0.0000E+00  0.1440E+03
     25.038  0.0000E+00  0.1440E+03
     25.048  0.0000E+00  0.1440E+03
     25.058  0.0000E+00  0.1440E+03
     25.068  0.0000E+00  0.1440E+03
     25.079  0.0000E+00  0.1440E+03
     25.089  0.0000E+00  0.1440E+03
     25.099  0.0000E+00  0.1440E+03
     25.109  0.0000E+00  0.1440E+03
     25.119  0.0000E+00  0.1440E+03
     25.129  0.0000E+00  0.1440E+03
     25.140  0.0000E+00  0.1440E+03
     25.150  0.0000E+00  0.1440E+03
     25.160  0.0000E+00  0.1440E+03
     25.170  0.0000E+00  0.1440E+03
     25.180  0.0000E+00  0.1440E+03
     25.191  0.0000E+00  0.1440E+03
     25.201  0.0000E+00  0.1440E+03
     25.211  0.0000E+00  0.1440E+03
     25.221  0.0000E+00  0.1440E+03
     25.231  0.0000E+00  0.1440E+03
     25.242  0.0000E+00  0.1440E+03
     25.252  0.0000E+00  0.1440E+03
     25.262  0.0000E+00  0.1440E+03
     25.272  0.0000E+00  0.1440E+03
     25.282  0.0000E+00  0.1440E+03
     25.292  0.0000E+00  0.1440E+03
     25.303  0.0000E+00  0.1440E+03
     25.313  0.0000E+00  0.1440E+03
     25.323  0.0000E+00  0.1440E+03
     25.333  0.0000E+00  0.1440E+03
     25.343  0.0000E+00  0.1440E+03
     25.354  0.0000E+00  0.1440E+03
     25.364  0.0000E+00  0.1440E+03
     25.374  0.0000E+00  0.1440E+03
     25.384  0.0000E+00  0.1440E+03
     25.394  0.0000E+00  0.1440E+03
     25.404  0.0000E+00  0.1440E+03
     25.415  0.0000E+00  0.1440E+03
     25.425  0.0000E+00  0.1440E+03
     25.435  0.0000E+00  0.1440E+03
     25.445  0.0000E+00  0.1440E+03
     25.455  0.0000E+00  0.1440E+03
     25.466  0.0000E+00  0.1440E+03
     25.476  0.0000E+00  0.1440E+03
     25.486  0.0000E+00  0.1440E+03
     25.496  0.0000E+00  0.1440E+03
     25.506  0.0000E+00  0.1440E+03
     25.517  0.0000E+00  0.1440E+03
     25.527  0.0000E+00  0.1440E+03
     25.537  0.0000E+00  0.1440E+03
     25.547  0.0000E+00  0.1440E+03
     25.557  0.0000E+00  0.1440E+03
     25.567  0.0000E+00  0.1440E+03
     25.578  0.0000E+00  0.1440E+03
     25.588  0.0000E+00  0.1440E+03
     25.598  0.0000E+00  0.1440E+03
     25.608  0.0000E+00  0.1440E+03
     25.618  0.0000E+00  0.1440E+03
     25.629  0.0000E+00  0.1440E+03
     25.639  0.0000E+00  0.1440E+03
     25.649  0.0000E+00  0.1440E+03
     25.659  0.0000E+00  0.1440E+03
     25.669  0.0000E+00  0.1440E+03
     25.679  0.0000E+00  0.1440E+03
     25.690  0.0000E+00  0.1440E+03
     25.700  0.0000E+00  0.1440E+03
     25.710  0.0000E+00  0.1440E+03
     25.720  0.0000E+00  0.1440E+03
     25.730  0.0000E+00  0.1440E+03
     25.741  0.0000E+00  0.1440E+03
     25.751  0.0000E+00  0.1440E+03
     25.761  0.0000E+00  0.1440E+03
     25.771  0.0000E+00  0.1440E+03
     25.781  0.0000E+00  0.1440E+03
     25.792  0.0000E+00  0.1440E+03
     25.802  0.0000E+00  0.1440E+03
     25.812  0.0000E+00  0.1440E+03
     25.822  0.0000E+00  0.1440E+03
     25.832  0.0000E+00  0.1440E+03
     25.842  0.0000E+00  0.1440E+03
     25.853  0.0000E+00  0.1440E+03
     25.863  0.0000E+00  0.1440E+03
     25.873  0.0000E+00  0.1440E+03
     25.883  0.0000E+00  0.1440E+03
     25.893  0.0000E+00  0.1440E+03
     25.904  0.0000E+00  0.1440E+03
     25.914  0.0000E+00  0.1440E+03
     25.924  0.0000E+00  0.1440E+03
     25.934  0.0000E+00  0.1440E+03
     25.944  0.0000E+00  0.1440E+03
     25.954  0.0000E+00  0.1440E+03
     25.965  0.0000E+00  0.1440E+03
     25.975  0.0000E+00  0.1440E+03
     25.985  0.0000E+00  0.1440E+03
     25.995  0.0000E+00  0.1440E+03
     26.005  0.0000E+00  0.1440E+03
     26.016  0.0000E+00  0.1440E+03
     26.026  0.0000E+00  0.1440E+03
     26.036  0.0000E+00  0.1440E+03
     26.046  0.0000E+00  0.1440E+03
     26.056  0.0000E+00  0.1440E+03
     26.067  0.0000E+00  0.1440E+03
     26.077  0.0000E+00  0.1440E+03
     26.087  0.0000E+00  0.1440E+03
     26.097  0.0000E+00  0.1440E+03
     26.107  0.0000E+00  0.1440E+03
     26.117  0.0000E+00  0.1440E+03
     26.128  0.0000E+00  0.1440E+03
     26.138  0.0000E+00  0.1440E+03
     26.148  0.0000E+00  0.1440E+03
     26.158  0.0000E+00  0.1440E+03
     26.168  0.0000E+00  0.1440E+03
     26.179  0.0000E+00  0.1440E+03
     26.189  0.0000E+00  0.1440E+03
